#  Table pcf185wsys.tab  Mon 12:21:08 02-Jun-97

#      WAVELENGTH      THROUGHPUT
#       angstroms                

            1640.              0.
         1641.562     5.885925E-6
         1643.125     1.177077E-5
         1644.691     1.765680E-5
         1646.258     2.354073E-5
         1647.825     2.941476E-5
         1649.395     3.531637E-5
         1650.966     4.124735E-5
         1652.538     4.720953E-5
         1654.113     5.319245E-5
         1655.689     5.919013E-5
         1657.265     6.520485E-5
         1658.844     7.123760E-5
         1660.425     7.731023E-5
         1662.006     8.345438E-5
         1663.589     8.962766E-5
         1665.173     9.582970E-5
         1666.759     1.020610E-4
         1668.347     1.083247E-4
         1669.936     1.146140E-4
         1671.527     1.210249E-4
          1673.12     1.274828E-4
         1674.712     1.339727E-4
         1676.308     1.405098E-4
         1677.905     1.470874E-4
         1679.502     1.536979E-4
         1681.103     1.604320E-4
         1682.704     1.672457E-4
         1684.307     1.741098E-4
         1685.911     1.810277E-4
         1687.517     1.879924E-4
         1689.124     1.950083E-4
         1690.733     2.021297E-4
         1692.344     2.093766E-4
         1693.956     2.166800E-4
          1695.57     2.240481E-4
         1697.185     2.314723E-4
           1698.8     2.389540E-4
         1700.419     2.485567E-4
          1702.04     2.641495E-4
         1703.661     2.798793E-4
         1705.283     2.957575E-4
         1706.908     3.117936E-4
         1708.533     3.279607E-4
         1710.161     3.443132E-4
          1711.79     3.609453E-4
          1713.42     3.777457E-4
         1715.053     3.947220E-4
         1716.685     4.118484E-4
         1718.321     4.291645E-4
         1719.958     4.466524E-4
         1721.596     4.644420E-4
         1723.236     4.824390E-4
         1724.877     5.006134E-4
          1726.52     5.189741E-4
         1728.165     5.375353E-4
         1729.811     5.562758E-4
         1731.459     5.769863E-4
         1733.108     5.981499E-4
         1734.759     6.195510E-4
         1736.411     6.411675E-4
         1738.065     6.630151E-4
         1739.721     6.851056E-4
         1741.377     7.075196E-4
         1743.037     7.302259E-4
         1744.698     7.531777E-4
         1746.358     7.763487E-4
         1748.023     7.997956E-4
         1749.687     8.234791E-4
         1751.354     8.464888E-4
         1753.023     8.694941E-4
         1754.691     8.926640E-4
         1756.363     9.160520E-4
         1758.036     9.396214E-4
          1759.71     9.633868E-4
         1761.387     9.844416E-4
         1763.066     0.001005056
         1764.744     0.001025815
         1766.425     0.001046754
         1768.108     0.001067875
         1769.792     0.001089155
         1771.478     0.001110721
         1773.165     0.001132467
         1774.854      0.00115439
         1776.545     0.001176492
         1778.237     0.001198783
         1779.931     0.001221243
         1781.626        0.001244
         1783.324     0.001266961
         1785.021      0.00129008
         1786.722     0.001313415
         1788.425     0.001336939
         1790.127     0.001359882
         1791.833       0.0013738
          1793.54     0.001387806
         1795.248     0.001401907
         1796.958     0.001416113
          1798.67     0.001430408
         1800.383     0.001444828
         1802.098     0.001459443
         1803.814     0.001474158
         1805.533     0.001488981
         1807.252     0.001503897
         1808.975     0.001518925
         1810.696     0.001534095
         1812.423     0.001549482
         1814.148     0.001564948
         1815.876     0.001580529
         1817.606     0.001596226
         1819.336      0.00161201
         1821.071     0.001624486
         1822.805     0.001634877
         1824.541      0.00164532
         1826.279     0.001655815
         1828.018     0.001666363
          1829.76      0.00167697
         1831.503     0.001687751
         1833.248     0.001698612
         1834.993     0.001709517
         1836.742     0.001720487
         1838.492     0.001731514
         1840.242     0.001742602
         1841.996     0.001753882
          1843.75     0.001765212
         1845.506       0.0017766
         1847.265     0.001788051
         1849.024     0.001799552
         1850.785     0.001808573
         1852.547      0.00181445
         1854.312     0.001820324
         1856.078     0.001826196
         1857.847      0.00183207
         1859.616     0.001837937
         1861.387     0.001843923
         1863.161     0.001849944
         1864.934     0.001855955
         1866.711     0.001861971
          1868.49     0.001867983
         1870.269      0.00187401
         1872.051     0.001880162
         1873.834     0.001886308
         1875.619     0.001892455
         1877.406     0.001898597
         1879.194     0.001904583
         1880.983     0.001909393
         1882.775      0.00191426
         1884.569     0.001919114
         1886.364     0.001923952
         1888.161     0.001928779
          1889.96     0.001933589
         1891.759     0.001938516
         1893.561     0.001943437
         1895.365     0.001948342
         1897.171     0.001953234
         1898.978     0.001958108
         1900.785     0.001963033
         1902.597     0.001968035
          1904.41     0.001973023
         1906.223     0.001977992
         1908.039     0.001982945
         1909.857     0.001987886
         1911.675     0.001989443
         1913.497     0.001990664
          1915.32     0.001991833
         1917.143     0.001992949
          1918.97     0.001994015
         1920.798      0.00199508
         1922.627     0.001996158
         1924.459     0.001997184
         1926.292     0.001998156
         1928.126     0.001999074
         1929.963     0.001999938
         1931.802     0.002000875
         1933.642     0.002001758
         1935.483     0.002002586
         1937.328     0.002003358
         1939.172     0.002004074
         1941.021     0.002004161
         1942.869     0.002003719
         1944.719     0.002003209
         1946.572      0.00200263
         1948.426     0.002001983
         1950.282     0.002001285
          1952.14     0.002000618
         1953.998     0.001999883
          1955.86     0.001999076
         1957.723     0.001998197
         1959.588     0.001997248
         1961.454     0.001996281
         1963.324     0.001995256
         1965.192      0.00199416
         1967.064      0.00199299
         1968.939     0.001991746
         1970.814     0.001989918
         1972.692     0.001987338
          1974.57     0.001984673
         1976.451      0.00198192
         1978.334     0.001979078
         1980.219     0.001976157
         1982.104     0.001973199
         1983.992     0.001970152
         1985.883     0.001967013
         1987.774     0.001963787
         1989.667     0.001960469
         1991.563     0.001957103
         1993.459     0.001953658
         1995.359     0.001950117
          1997.26     0.001946483
         1999.161     0.001942761
         2001.066     0.001937484
         2002.972     0.001930934
         2004.879     0.001924243
          2006.79     0.001917407
           2008.7     0.001910437
         2010.614     0.001903328
         2012.529     0.001896103
         2014.447     0.001888728
         2016.365     0.001881212
         2018.287     0.001873545
         2020.208     0.001865737
         2022.132     0.001857758
         2024.059     0.001849625
         2025.985     0.001841351
         2027.917     0.001832912
         2029.849     0.001824331
         2031.782     0.001812055
         2033.717     0.001799285
         2035.654     0.001786322
         2037.594     0.001773156
         2039.534     0.001759801
         2041.478      0.00174621
         2043.421     0.001732427
         2045.368     0.001718428
         2047.316     0.001704238
         2049.266     0.001689848
         2051.219     0.001675207
         2053.172     0.001660351
         2055.128      0.00164529
         2057.085     0.001630025
         2059.045     0.001614547
         2061.006     0.001597609
         2062.969     0.001579247
         2064.934     0.001560654
           2066.9     0.001541832
          2068.87     0.001522768
         2070.842     0.001503429
         2072.813     0.001483834
         2074.788     0.001463979
         2076.764     0.001443901
         2078.742     0.001423589
         2080.721     0.001402999
         2082.703     0.001382102
         2084.688     0.001360958
         2086.673     0.001339589
         2088.662     0.001317968
         2090.651     0.001296667
         2092.642     0.001276268
         2094.635     0.001255646
          2096.63     0.001234802
         2098.629     0.001213712
         2100.626     0.001192396
         2102.628      0.00117075
         2104.631     0.001148896
         2106.634     0.001126829
         2108.643     0.001104502
          2110.65     0.001081946
         2112.661     0.001059056
         2114.673     0.001035954
         2116.686     0.001012647
         2118.704     9.890730E-4
         2120.722     9.672320E-4
         2122.742     9.486669E-4
         2124.763     9.299277E-4
         2126.788     9.110048E-4
         2128.815     8.919065E-4
         2130.841     8.725981E-4
         2132.872     8.530193E-4
         2134.902     8.332927E-4
         2136.936     8.133698E-4
         2138.972     7.933935E-4
         2141.009     7.733169E-4
         2143.049     7.529678E-4
         2145.089     7.324576E-4
         2147.134     7.117338E-4
         2149.179     6.908499E-4
         2151.226     6.755042E-4
         2153.274     6.638770E-4
         2155.325     6.521486E-4
         2157.379     6.403127E-4
         2159.434     6.283802E-4
         2161.491     6.162453E-4
          2163.55     6.039835E-4
         2165.609     5.916309E-4
         2167.673     5.791645E-4
         2169.738     5.666063E-4
         2171.805     5.538243E-4
         2173.874     5.409385E-4
         2175.943     5.279662E-4
         2178.016     5.148838E-4
         2180.092     5.017009E-4
         2182.168     4.883140E-4
         2184.246     4.748394E-4
         2186.328     4.612659E-4
         2188.409     4.476182E-4
         2190.494     4.349190E-4
         2192.582     4.255493E-4
          2194.67     4.161277E-4
          2196.76     4.066487E-4
         2198.852     3.971110E-4
         2200.946     3.885112E-4
         2203.043     3.809688E-4
         2205.142     3.732519E-4
         2207.242     3.653551E-4
         2209.344     3.572774E-4
         2211.449     3.509128E-4
         2213.555     3.452720E-4
         2215.664     3.394977E-4
         2217.774     3.335891E-4
         2219.886     3.275454E-4
         2222.001     3.213159E-4
         2224.117     3.149529E-4
         2226.236     3.084548E-4
         2228.357     3.018164E-4
         2230.479     2.955417E-4
         2232.604     2.908523E-4
          2234.73     2.860619E-4
         2236.858     2.811710E-4
          2238.99     2.761750E-4
         2241.122     2.710586E-4
         2243.258     2.658182E-4
         2245.393     2.604825E-4
         2247.534     2.550356E-4
         2249.673     2.494951E-4
         2251.816     2.453157E-4
         2253.962     2.413199E-4
         2256.107     2.372522E-4
         2258.258     2.330998E-4
         2260.409     2.288854E-4
         2262.562     2.246380E-4
         2264.717     2.203151E-4
         2266.873     2.159164E-4
         2269.034     2.114381E-4
         2271.195     2.076005E-4
         2273.359     2.042767E-4
         2275.523     2.008984E-4
         2277.691     1.974575E-4
          2279.86     1.939597E-4
         2282.032     1.903853E-4
         2284.206     1.867491E-4
          2286.38     1.830582E-4
         2288.559     1.793033E-4
          2290.74     1.758657E-4
         2292.922     1.731126E-4
         2295.105     1.703142E-4
         2297.291     1.675065E-4
         2299.479     1.646763E-4
          2301.67     1.617521E-4
         2303.863     1.587671E-4
         2306.058     1.557321E-4
         2308.253     1.526516E-4
         2310.453     1.497110E-4
         2312.653     1.474739E-4
         2314.855     1.451999E-4
         2317.062     1.428871E-4
         2319.267     1.405399E-4
         2321.477     1.381454E-4
         2323.689     1.357102E-4
         2325.902     1.332387E-4
         2328.117     1.307296E-4
         2330.335     1.282849E-4
         2332.554     1.263833E-4
         2334.777     1.244508E-4
         2337.002     1.224887E-4
         2339.226     1.204992E-4
         2341.455     1.184714E-4
         2343.685     1.164122E-4
         2345.917     1.143228E-4
         2348.153     1.122020E-4
         2350.388     1.101494E-4
         2352.628     1.085236E-4
         2354.868     1.068754E-4
         2357.112     1.052022E-4
         2359.357     1.035062E-4
         2361.604     1.017798E-4
         2363.853     1.000268E-4
         2366.104     9.825001E-5
         2368.359     9.644808E-5
         2370.615     9.475003E-5
         2372.873     9.336926E-5
         2375.134     9.196890E-5
         2377.396     9.055051E-5
          2379.66     8.911311E-5
         2381.926     8.765000E-5
         2384.195     8.616681E-5
         2386.467     8.466384E-5
          2388.74     8.314265E-5
         2391.016     8.179281E-5
         2393.293     8.066496E-5
         2395.573     7.952275E-5
         2397.854     7.836601E-5
         2400.138     7.718650E-5
         2402.426     7.586321E-5
         2404.713     7.452632E-5
         2407.003     7.317309E-5
         2409.297     7.180302E-5
          2411.59     7.068668E-5
         2413.889     6.967459E-5
         2416.187     6.865223E-5
          2418.49     6.761666E-5
         2420.793     6.656771E-5
         2423.097     6.550364E-5
         2425.407     6.442567E-5
         2427.716     6.333762E-5
          2430.03     6.223968E-5
         2432.344     6.139655E-5
         2434.662     6.054341E-5
         2436.979     5.968173E-5
           2439.3     5.880996E-5
         2441.626     5.787642E-5
          2443.95     5.691235E-5
         2446.279     5.593689E-5
         2448.608     5.495191E-5
          2450.94     5.407049E-5
         2453.276     5.334875E-5
         2455.611     5.262013E-5
         2457.951     5.188298E-5
         2460.292     5.113810E-5
         2462.637     5.038316E-5
         2464.982     4.962094E-5
          2467.33     4.885081E-5
         2469.681     4.807239E-5
         2472.031     4.741448E-5
         2474.387     4.676911E-5
         2476.745     4.611714E-5
         2479.103     4.545927E-5
         2481.465     4.484051E-5
         2483.828     4.424449E-5
         2486.194     4.364243E-5
         2488.563     4.303392E-5
         2490.932     4.245043E-5
         2493.305     4.190753E-5
          2495.68     4.135946E-5
         2498.058     4.080548E-5
         2500.437     4.024636E-5
          2502.82     3.968125E-5
         2505.202     3.911120E-5
         2507.588     3.853520E-5
         2509.978     3.795328E-5
         2512.368     3.744648E-5
         2514.762     3.693514E-5
         2517.157     3.641902E-5
         2519.555     3.589783E-5
         2521.954     3.543860E-5
         2524.358     3.498988E-5
         2526.762     3.453697E-5
         2529.168     3.407953E-5
         2531.578     3.367273E-5
         2533.988     3.329162E-5
         2536.403     3.290620E-5
         2538.818     3.246926E-5
         2541.236     3.197107E-5
         2543.658     3.142870E-5
          2546.08     3.088386E-5
         2548.505     3.033629E-5
         2550.934     2.988497E-5
         2553.363     2.959089E-5
         2555.795     2.929516E-5
         2558.229     2.899775E-5
         2560.666     2.865160E-5
         2563.106     2.817775E-5
         2565.547     2.770180E-5
          2567.99     2.722342E-5
         2570.436     2.677403E-5
         2572.887     2.646724E-5
         2575.336     2.615930E-5
         2577.788     2.584952E-5
         2580.245     2.553799E-5
         2582.701     2.522639E-5
         2585.163     2.491250E-5
         2587.625     2.459728E-5
          2590.09     2.428043E-5
         2592.557     2.396306E-5
         2595.026     2.364399E-5
         2597.499     2.332300E-5
         2599.972     2.300047E-5
          2602.45     2.267735E-5
         2604.927     2.235286E-5
         2607.409     2.202623E-5
         2609.893     2.169809E-5
         2612.378     2.154459E-5
         2614.868     2.139800E-5
         2617.357     2.125060E-5
         2619.851     2.110208E-5
         2622.347     2.077966E-5
         2624.843     2.044484E-5
         2627.345     2.010781E-5
         2629.847     1.976923E-5
         2632.352     1.960546E-5
          2634.86     1.945209E-5
         2637.369     1.929782E-5
         2639.881     1.914257E-5
         2642.395     1.889705E-5
         2644.913     1.864554E-5
         2647.432     1.839276E-5
         2649.954     1.813861E-5
         2652.478     1.797771E-5
         2655.004     1.781759E-5
         2657.534     1.765639E-5
         2660.066     1.749420E-5
         2662.599     1.733185E-5
         2665.135     1.716848E-5
         2667.674     1.700411E-5
         2670.214     1.683880E-5
         2672.759     1.667284E-5
         2675.303     1.650609E-5
         2677.854     1.633805E-5
         2680.402     1.616941E-5
         2682.957     1.600015E-5
         2685.512     1.583000E-5
          2688.07     1.565883E-5
          2690.63     1.548676E-5
         2693.194     1.531388E-5
         2695.759     1.514008E-5
         2698.327     1.496519E-5
         2700.896     1.483317E-5
         2703.469     1.478187E-5
         2706.044     1.472989E-5
         2708.622     1.467718E-5
         2711.201     1.457625E-5
         2713.783     1.441947E-5
         2716.369     1.426108E-5
         2718.958     1.410119E-5
         2721.547     1.400222E-5
         2724.139     1.394439E-5
         2726.734     1.388582E-5
         2729.331     1.382650E-5
         2731.931     1.376649E-5
         2734.532     1.370584E-5
         2737.139     1.364433E-5
         2739.744     1.358218E-5
         2742.355     1.342219E-5
         2744.967     1.325023E-5
         2747.581     1.307670E-5
         2750.199     1.290736E-5
         2752.817     1.280850E-5
          2755.44     1.270926E-5
         2758.066     1.260976E-5
         2760.691     1.251006E-5
         2763.322     1.240985E-5
         2765.954     1.230944E-5
          2768.59     1.220870E-5
         2771.225     1.210778E-5
         2773.864     1.200648E-5
         2776.509     1.190479E-5
          2779.15     1.180308E-5
           2781.8     1.170070E-5
         2784.449     1.159809E-5
         2787.101     1.149522E-5
         2789.756     1.139209E-5
         2792.413     1.128844E-5
         2795.075     1.118438E-5
         2797.734     1.108031E-5
         2800.402     1.097570E-5
         2803.069     1.087077E-5
         2805.738     1.076558E-5
         2808.412     1.066008E-5
         2811.085     1.060032E-5
         2813.764     1.060771E-5
         2816.444     1.061511E-5
         2819.127     1.062252E-5
         2821.813     1.055268E-5
           2824.5     1.044544E-5
          2827.19     1.033795E-5
         2829.883     1.023020E-5
         2832.578     1.012205E-5
         2835.278     1.001352E-5
         2837.979     9.904853E-6
         2840.682     9.795856E-6
         2843.387     9.686395E-6
         2846.095     9.576680E-6
         2848.805     9.466719E-6
         2851.519     9.421475E-6
         2854.236     9.427315E-6
         2856.954     9.433158E-6
