#  Table pcf160bwsys.tab  Mon 12:21:07 02-Jun-97

#      WAVELENGTH      THROUGHPUT
#       angstroms                

            1216.     3.996684E-4
          1217.34     4.068969E-4
         1218.682     4.142192E-4
         1220.026     4.216199E-4
         1221.371     4.278348E-4
         1222.717     4.341186E-4
         1224.065     4.404793E-4
         1225.414     4.469131E-4
         1226.765     4.534218E-4
         1228.117     4.600056E-4
         1229.471     4.666648E-4
         1230.826     4.726674E-4
         1232.183     4.782644E-4
         1233.542     4.839183E-4
         1234.901     4.896219E-4
         1236.262     4.953833E-4
         1237.625     5.011978E-4
         1238.989     5.070714E-4
         1240.355     5.127479E-4
         1241.722     5.177343E-4
         1243.091     5.227636E-4
         1244.461     5.278332E-4
         1245.833     5.329411E-4
         1247.207     5.380951E-4
         1248.582     5.432884E-4
         1249.957     5.485202E-4
         1251.335     5.530642E-4
         1252.715     5.576155E-4
         1254.095     5.621951E-4
         1255.478     5.668096E-4
         1256.862     5.714528E-4
         1258.247     5.761245E-4
         1259.634     5.808297E-4
         1261.023     5.850947E-4
         1262.413     5.892143E-4
         1263.805     5.933565E-4
         1265.198     5.975210E-4
         1266.592     6.017062E-4
         1267.989     6.059165E-4
         1269.387     6.101514E-4
         1270.786     6.140941E-4
         1272.187     6.178130E-4
         1273.588     6.215460E-4
         1274.992     6.252968E-4
         1276.399     6.290654E-4
         1277.805     6.328466E-4
         1279.214     6.366451E-4
         1280.624     6.402637E-4
         1282.035     6.436448E-4
         1283.449     6.470403E-4
         1284.864     6.504449E-4
          1286.28     6.538582E-4
         1287.698     6.572847E-4
         1289.117     6.607217E-4
         1290.538     6.640453E-4
         1291.961     6.671729E-4
         1293.385     6.703074E-4
         1294.811     6.734480E-4
         1296.238     6.765969E-4
         1297.668     6.797548E-4
         1299.098     6.829171E-4
          1300.53     6.856611E-4
         1301.963     6.876818E-4
         1303.398     6.897037E-4
         1304.835     6.917289E-4
         1306.274     6.937569E-4
         1307.713     6.957853E-4
         1309.155     6.978168E-4
         1310.597     6.997791E-4
         1312.042     7.016443E-4
         1313.489     7.035102E-4
         1314.937     7.053777E-4
         1316.386     7.072440E-4
         1317.837     7.091118E-4
          1319.29     7.109796E-4
         1320.744     7.127791E-4
           1322.2     7.145118E-4
         1323.657     7.162439E-4
         1325.117     7.179757E-4
         1326.578     7.197068E-4
         1328.039     7.214364E-4
         1329.503     7.231663E-4
         1330.969     7.248132E-4
         1332.436     7.264162E-4
         1333.905     7.280177E-4
         1335.376     7.296175E-4
         1336.847     7.312145E-4
         1338.321     7.328106E-4
         1339.796     7.344048E-4
         1341.273     7.359245E-4
         1342.752     7.374302E-4
         1344.232     7.389332E-4
         1345.713     7.404328E-4
         1347.197     7.419304E-4
         1348.682     7.434256E-4
         1350.169     7.449104E-4
         1351.657     7.463356E-4
         1353.146     7.477566E-4
         1354.638     7.490973E-4
         1356.131     7.503303E-4
         1357.627     7.515604E-4
         1359.123     7.527857E-4
         1360.621     7.539928E-4
         1362.121     7.551751E-4
         1363.622     7.563527E-4
         1365.126     7.575277E-4
          1366.63     7.586972E-4
         1368.137     7.598633E-4
         1369.645     7.610252E-4
         1371.155     7.621820E-4
         1372.667     7.633357E-4
          1374.18     7.644844E-4
         1375.694     7.656284E-4
         1377.211     7.667684E-4
         1378.729     7.679042E-4
         1380.249     7.690392E-4
         1381.771     7.701879E-4
         1383.294     7.713324E-4
         1384.818     7.724719E-4
         1386.345     7.736078E-4
         1387.874     7.747398E-4
         1389.403     7.758662E-4
         1390.935     7.770246E-4
         1392.468     7.782017E-4
         1394.002     7.793742E-4
          1395.54     7.805435E-4
         1397.078     7.817084E-4
         1398.618     7.828685E-4
          1400.16     7.838574E-4
         1401.703     7.833888E-4
         1403.248     7.829162E-4
         1404.795     7.824390E-4
         1406.343     7.819578E-4
         1407.894     7.814723E-4
         1409.446     7.809824E-4
         1410.999     7.805134E-4
         1412.555     7.800536E-4
         1414.112     7.795897E-4
          1415.67     7.791220E-4
         1417.231     7.786499E-4
         1418.793     7.781737E-4
         1420.357     7.776896E-4
         1421.923     7.771889E-4
         1423.491     7.766839E-4
         1425.059     7.761751E-4
          1426.63     7.756618E-4
         1428.203     7.751443E-4
         1429.777     7.746228E-4
         1431.354     7.740473E-4
         1432.932     7.734593E-4
          1434.51     7.728674E-4
         1436.092     7.722708E-4
         1437.676     7.716696E-4
          1439.26     7.710651E-4
         1440.847     7.703941E-4
         1442.435     7.696646E-4
         1444.024     7.689313E-4
         1445.617     7.681929E-4
          1447.21     7.674505E-4
         1448.805     7.667033E-4
         1450.402     7.659088E-4
         1452.001     7.649822E-4
         1453.602     7.640499E-4
         1455.205     7.631132E-4
         1456.808     7.621725E-4
         1458.414     7.612263E-4
         1460.022     7.602726E-4
         1461.631     7.591045E-4
         1463.243     7.579314E-4
         1464.856     7.567534E-4
          1466.47     7.555708E-4
         1468.086     7.543825E-4
         1469.706     7.531885E-4
         1471.325     7.517694E-4
         1472.947     7.502951E-4
         1474.571     7.488154E-4
         1476.196     7.473308E-4
         1477.824     7.458394E-4
         1479.453     7.443437E-4
         1481.083     7.426346E-4
         1482.716     7.408138E-4
          1484.35     7.389875E-4
         1485.987     7.371551E-4
         1487.625     7.358766E-4
         1489.264     7.354923E-4
         1490.906     7.348916E-4
         1492.549     7.341111E-4
         1494.195     7.333130E-4
         1495.842     7.324973E-4
         1497.491     7.316641E-4
         1499.142     7.308131E-4
         1500.794     7.288601E-4
         1502.449     7.257136E-4
         1504.105     7.225528E-4
         1505.763     7.193736E-4
         1507.423     7.161775E-4
         1509.084     7.129665E-4
         1510.748     7.096100E-4
         1512.414     7.060854E-4
          1514.08     7.025463E-4
         1515.749     6.989901E-4
         1517.419     6.954199E-4
         1519.093     6.918306E-4
         1520.768     6.881528E-4
         1522.444     6.843712E-4
         1524.122     6.805767E-4
         1525.802     6.767663E-4
         1527.484     6.729418E-4
         1529.168     6.691032E-4
         1530.854     6.652148E-4
          1532.54     6.612797E-4
          1534.23     6.573296E-4
         1535.921     6.533667E-4
         1537.615     6.493893E-4
          1539.31     6.454032E-4
         1541.006     6.414205E-4
         1542.705     6.374374E-4
         1544.405     6.334447E-4
         1546.109     6.284209E-4
         1547.812     6.228692E-4
         1549.518     6.173321E-4
         1551.227     6.118938E-4
         1552.936     6.065074E-4
         1554.648     6.011353E-4
         1556.363     5.957772E-4
         1558.078     5.904411E-4
         1559.795     5.851199E-4
         1561.515     5.799921E-4
         1563.235     5.749069E-4
         1564.958     5.698354E-4
         1566.685     5.647771E-4
         1568.411     5.597398E-4
          1570.14     5.547373E-4
         1571.871     5.499902E-4
         1573.603     5.452601E-4
         1575.338     5.405422E-4
         1577.075     5.358366E-4
         1578.813     5.311500E-4
         1580.553     5.265832E-4
         1582.295     5.222621E-4
         1584.039     5.179510E-4
         1585.785     5.136529E-4
         1587.534     5.093674E-4
         1589.284     5.050947E-4
         1591.036     5.010638E-4
          1592.79     4.972024E-4
         1594.545     4.933535E-4
         1596.303     4.895132E-4
         1598.062     4.856833E-4
         1599.824     4.818640E-4
         1601.588     4.776589E-4
         1603.353     4.734268E-4
          1605.12     4.692078E-4
          1606.89     4.650038E-4
         1608.661     4.608150E-4
         1610.434     4.567502E-4
          1612.21     4.530323E-4
         1613.986     4.493275E-4
         1615.765     4.456321E-4
         1617.548     4.419458E-4
          1619.33     4.382747E-4
         1621.115     4.348886E-4
         1622.902     4.316761E-4
          1624.69     4.284724E-4
         1626.482     4.252731E-4
         1628.275     4.220839E-4
         1630.069     4.189179E-4
         1631.867     4.161789E-4
         1633.665     4.134452E-4
         1635.466     4.107121E-4
         1637.269     4.079837E-4
         1639.074     4.052590E-4
          1640.88     4.027545E-4
         1642.689     4.004764E-4
           1644.5     3.981981E-4
         1646.313     3.959197E-4
         1648.128     3.936645E-4
         1649.944     3.917176E-4
         1651.763     3.901928E-4
         1653.585     3.886737E-4
         1655.407     3.871493E-4
         1657.232     3.856169E-4
         1659.058     3.840783E-4
         1660.888     3.827239E-4
         1662.719     3.815660E-4
         1664.552     3.803987E-4
         1666.386     3.792227E-4
         1668.223     3.780364E-4
         1670.062     3.768524E-4
         1671.903     3.759916E-4
         1673.746     3.751194E-4
          1675.59     3.742361E-4
         1677.437     3.733409E-4
         1679.287     3.724339E-4
         1681.139     3.716972E-4
         1682.991     3.710623E-4
         1684.847     3.704139E-4
         1686.704     3.697519E-4
         1688.563     3.690767E-4
         1690.425     3.684441E-4
         1692.287     3.679905E-4
         1694.153     3.675215E-4
         1696.021     3.670372E-4
          1697.89     3.665379E-4
         1699.762     3.660225E-4
         1701.636     3.661067E-4
         1703.512     3.662690E-4
         1705.389     3.664199E-4
         1707.269     3.665597E-4
         1709.151     3.666880E-4
         1711.035     3.669031E-4
         1712.922     3.671870E-4
         1714.809     3.674587E-4
         1716.699     3.677182E-4
         1718.592     3.679653E-4
         1720.485     3.682355E-4
         1722.383     3.685974E-4
         1724.281     3.689456E-4
         1726.182     3.692808E-4
         1728.086     3.696028E-4
          1729.99     3.699110E-4
         1731.897     3.703193E-4
         1733.806     3.707141E-4
         1735.718     3.710945E-4
          1737.63     3.714604E-4
         1739.546     3.718118E-4
         1741.463     3.722135E-4
         1743.383     3.726203E-4
         1745.305     3.730117E-4
         1747.228     3.733874E-4
         1749.154     3.737477E-4
         1751.084     3.737647E-4
         1753.013     3.735104E-4
         1754.946     3.732395E-4
          1756.88     3.729522E-4
         1758.817     3.726484E-4
         1760.756     3.723465E-4
         1762.697     3.720570E-4
         1764.639     3.717502E-4
         1766.585     3.714261E-4
         1768.532     3.710843E-4
         1770.482     3.707365E-4
         1772.434     3.704054E-4
         1774.387     3.700561E-4
         1776.343     3.696888E-4
         1778.301     3.693028E-4
         1780.262     3.689035E-4
         1782.224     3.685221E-4
         1784.189     3.681213E-4
         1786.156     3.677013E-4
         1788.124     3.672619E-4
         1790.096     3.668048E-4
         1792.068     3.663703E-4
         1794.044     3.659152E-4
         1796.022     3.654399E-4
         1798.001     3.649443E-4
         1799.984     3.644275E-4
         1801.968     3.623193E-4
         1803.954     3.601582E-4
         1805.942     3.579578E-4
         1807.933     3.557159E-4
         1809.926     3.534331E-4
         1811.922     3.511461E-4
         1813.919     3.488185E-4
         1815.918     3.464498E-4
          1817.92     3.440369E-4
         1819.925     3.415800E-4
          1821.93     3.391153E-4
         1823.938     3.366066E-4
         1825.948     3.340543E-4
         1827.962     3.314549E-4
         1829.976     3.288128E-4
         1831.995     3.261551E-4
         1834.013     3.234542E-4
         1836.035     3.207050E-4
         1838.059     3.179087E-4
         1840.084     3.150675E-4
         1842.113     3.122052E-4
         1844.144     3.092940E-4
         1846.177     3.063338E-4
         1848.212     3.033240E-4
         1850.248     3.002692E-4
         1852.288     2.971876E-4
          1854.33     2.940546E-4
         1856.375     2.908683E-4
         1858.421     2.876333E-4
         1860.469     2.843506E-4
          1862.52     2.810374E-4
         1864.573     2.776688E-4
         1866.628     2.742459E-4
         1868.686     2.707684E-4
         1870.746     2.672445E-4
         1872.808     2.636798E-4
         1874.872     2.600604E-4
         1876.939     2.563824E-4
         1879.008     2.526463E-4
         1881.079     2.486528E-4
         1883.153     2.446174E-4
         1885.229     2.405290E-4
         1887.307     2.363898E-4
         1889.387     2.321950E-4
         1891.471     2.279580E-4
         1893.555     2.236761E-4
         1895.643     2.193370E-4
         1897.732     2.149430E-4
         1899.823     2.104956E-4
         1901.919     2.085487E-4
         1904.014     2.068110E-4
         1906.113     2.050451E-4
         1908.215     2.032519E-4
         1910.317     2.014344E-4
         1912.424     1.996016E-4
         1914.532     1.977422E-4
         1916.643     1.958528E-4
         1918.755     1.939368E-4
          1920.87     1.919966E-4
         1922.988     1.900352E-4
         1925.107     1.880455E-4
          1927.23     1.860246E-4
         1929.354     1.839762E-4
         1931.481     1.819068E-4
          1933.61     1.798115E-4
          1935.74     1.776872E-4
         1937.875     1.755302E-4
         1940.011     1.733449E-4
         1942.149     1.711371E-4
          1944.29     1.688981E-4
         1946.434     1.666279E-4
          1948.58     1.643263E-4
         1950.728     1.619970E-4
         1952.878     1.596435E-4
          1955.03     1.572588E-4
         1957.185     1.548406E-4
         1959.343     1.523900E-4
         1961.503     1.499108E-4
         1963.665     1.474004E-4
         1965.829     1.448581E-4
         1967.996     1.422813E-4
         1970.167     1.396702E-4
         1972.339     1.370342E-4
         1974.512     1.343653E-4
         1976.689     1.316609E-4
         1978.868     1.289222E-4
         1981.049     1.261510E-4
         1983.233     1.233473E-4
         1985.418     1.205102E-4
         1987.607     1.176362E-4
         1989.798     1.147271E-4
         1991.992     1.113681E-4
         1994.188     1.079264E-4
         1996.386     1.044441E-4
         1998.586     1.009225E-4
         2000.789     9.801477E-5
         2002.996     9.625233E-5
         2005.203     9.446532E-5
         2007.414     9.265089E-5
         2009.627     9.080976E-5
         2011.841     8.835356E-5
          2014.06     8.574018E-5
         2016.279     8.309351E-5
         2018.502     8.040918E-5
         2020.727     7.776752E-5
         2022.955     7.525439E-5
         2025.185     7.270736E-5
         2027.417     7.012605E-5
         2029.652     6.751055E-5
         2031.889     6.528550E-5
         2034.129     6.310833E-5
         2036.371     6.090205E-5
         2038.616     5.866679E-5
         2040.864     5.659994E-5
         2043.112     5.482560E-5
         2045.365     5.302703E-5
         2047.621     5.120391E-5
         2049.877     4.935903E-5
         2052.137     4.824269E-5
         2054.399     4.715519E-5
         2056.664     4.605304E-5
         2058.931     4.493603E-5
         2061.201     4.336916E-5
         2063.472     4.139371E-5
         2065.747     3.939324E-5
         2068.024     3.736824E-5
         2070.304     3.535576E-5
         2072.586     3.356117E-5
         2074.871     3.174544E-5
         2077.157     2.990884E-5
         2079.447     2.804989E-5
          2081.74     2.682385E-5
         2084.034     2.579382E-5
         2086.332     2.475119E-5
         2088.632     2.369622E-5
         2090.933     2.238895E-5
          2093.24     2.071023E-5
         2095.546     1.901484E-5
         2097.856     1.729998E-5
         2100.169     1.561026E-5
         2102.483     1.446551E-5
         2104.802     1.330718E-5
         2107.121     1.213777E-5
         2109.444     1.095523E-5
         2111.769     9.888846E-6
         2114.097     8.852053E-6
         2116.428     7.804707E-6
          2118.76     6.747203E-6
         2121.097     5.944866E-6
         2123.434     5.438448E-6
         2125.775     4.926789E-6
         2128.118     4.410075E-6
         2130.463     3.931253E-6
         2132.813     3.621674E-6
         2135.163     3.309471E-6
         2137.518     2.994013E-6
         2139.875     2.676524E-6
         2142.231     2.475206E-6
         2144.594     2.278346E-6
         2146.958     2.079663E-6
         2149.325     1.879065E-6
         2151.693     1.730519E-6
         2154.065     1.602132E-6
          2156.44     1.472567E-6
         2158.817     1.341805E-6
         2161.197     1.233361E-6
         2163.578     1.147380E-6
         2165.964     1.060595E-6
         2168.353     9.730174E-7
         2170.743     8.939920E-7
         2173.135     8.349853E-7
         2175.529     7.754984E-7
         2177.929     7.154683E-7
         2180.329     6.576905E-7
         2182.733     6.163228E-7
         2185.138     5.746866E-7
         2187.547     5.327167E-7
         2189.959     4.904332E-7
         2192.372     4.607265E-7
         2194.789     4.310279E-7
         2197.208     4.011236E-7
         2199.632     3.710036E-7
         2202.056     3.504012E-7
         2204.482     3.311129E-7
         2206.912     3.113683E-7
         2209.345     2.911741E-7
         2211.782     2.752336E-7
         2214.219     2.607052E-7
          2216.66     2.458464E-7
         2219.104     2.306622E-7
         2221.549     2.181166E-7
         2223.998     2.070282E-7
         2226.449     1.957031E-7
         2228.904     1.841386E-7
         2231.361     1.742381E-7
          2233.82     1.656848E-7
         2236.284     1.569476E-7
         2238.748     1.480426E-7
         2241.217     1.402121E-7
         2243.687     1.335433E-7
         2246.159     1.267434E-7
         2248.636     1.198047E-7
         2251.114     1.136031E-7
         2253.597     1.083467E-7
          2256.08     1.029964E-7
         2258.567     9.754388E-8
         2261.057     9.261218E-8
         2263.548     8.844371E-8
         2266.045     8.419503E-8
         2268.542     7.987449E-8
         2271.042     7.594363E-8
         2273.546     7.260546E-8
         2276.051     6.921071E-8
         2278.562     6.575407E-8
         2281.072     6.261462E-8
         2283.588     5.992410E-8
         2286.104     5.719076E-8
         2288.623     5.441158E-8
         2291.147     5.189429E-8
         2293.672     4.971321E-8
         2296.202     4.749592E-8
         2298.732     4.526219E-8
         2301.266     4.325880E-8
         2303.803     4.149379E-8
         2306.342     3.969955E-8
         2308.885     3.787351E-8
         2311.431     3.625861E-8
