#  Table pcf218wsys.tab  Mon 12:21:08 02-Jun-97

#      WAVELENGTH      THROUGHPUT
#       angstroms                

            1216.    5.206306E-21
          1217.34    5.279158E-21
         1218.682    5.352621E-21
         1220.026    5.426464E-21
         1221.371    5.484503E-21
         1222.717    5.542948E-21
         1224.065    5.601872E-21
         1225.414    5.661233E-21
         1226.765    5.721046E-21
         1228.117    5.781308E-21
         1229.471    5.842020E-21
         1230.826    5.894054E-21
         1232.183    5.940607E-21
         1233.542    5.987466E-21
         1234.901    6.034571E-21
         1236.262    6.081986E-21
         1237.625    6.129671E-21
         1238.989    6.177672E-21
         1240.355    6.222874E-21
         1241.722    6.259387E-21
         1243.091    6.296100E-21
         1244.461    6.332992E-21
         1245.833    6.370048E-21
         1247.207    6.407322E-21
         1248.582    6.444764E-21
         1249.957    6.482369E-21
         1251.335    6.511554E-21
         1252.715    6.540579E-21
         1254.095    6.569703E-21
         1255.478    6.598965E-21
         1256.862    6.628331E-21
         1258.247    6.657792E-21
         1259.634    6.687383E-21
         1261.023    6.711678E-21
         1262.413    6.734106E-21
         1263.805    6.756598E-21
         1265.198    6.779154E-21
         1266.592    6.801764E-21
         1267.989    6.824452E-21
         1269.387    6.847213E-21
         1270.786    6.866539E-21
         1272.187    6.883196E-21
         1273.588    6.899872E-21
         1274.992    6.916587E-21
         1276.399    6.933337E-21
         1277.805    6.950102E-21
         1279.214    6.966902E-21
         1280.624    6.981589E-21
         1282.035    6.993580E-21
         1283.449    7.005587E-21
         1284.864    7.017595E-21
          1286.28    7.029597E-21
         1287.698    7.041616E-21
         1289.117    7.053636E-21
         1290.538    7.064339E-21
         1291.961    7.072864E-21
         1293.385    7.081379E-21
         1294.811    7.089880E-21
         1296.238    7.098374E-21
         1297.668    7.106862E-21
         1299.098    7.115332E-21
          1300.53    7.122980E-21
         1301.963    7.129222E-21
         1303.398    7.135443E-21
         1304.835    7.141646E-21
         1306.274    7.147832E-21
         1307.713    7.153994E-21
         1309.155    7.160139E-21
         1310.597    7.165546E-21
         1312.042    7.169920E-21
         1313.489    7.174267E-21
         1314.937    7.178588E-21
         1316.386    7.182880E-21
         1317.837    7.187146E-21
          1319.29    7.191385E-21
         1320.744    7.194893E-21
           1322.2    7.197700E-21
         1323.657    7.200472E-21
         1325.117    7.203214E-21
         1326.578    7.205922E-21
         1328.039    7.208595E-21
         1329.503    7.211236E-21
         1330.969    7.213025E-21
         1332.436    7.214355E-21
         1333.905    7.215648E-21
         1335.376    7.216902E-21
         1336.847    7.218116E-21
         1338.321    7.219292E-21
         1339.796    7.220430E-21
         1341.273    7.220809E-21
         1342.752    7.221029E-21
         1344.232    7.221206E-21
         1345.713    7.221343E-21
         1347.197    7.221435E-21
         1348.682    7.221486E-21
         1350.169    7.221423E-21
         1351.657    7.220776E-21
         1353.146    7.220083E-21
         1354.638    7.218595E-21
         1356.131    7.216063E-21
         1357.627    7.213488E-21
         1359.123    7.210877E-21
         1360.621    7.208080E-21
         1362.121    7.205040E-21
         1363.622    7.201960E-21
         1365.126    7.198837E-21
          1366.63    7.195674E-21
         1368.137    7.192467E-21
         1369.645    7.189218E-21
         1371.155    7.185917E-21
         1372.667    7.182568E-21
          1374.18    7.179177E-21
         1375.694    7.175747E-21
         1377.211    7.172270E-21
         1378.729    7.168754E-21
         1380.249    7.165227E-21
         1381.771    7.161836E-21
         1383.294    7.158403E-21
         1384.818    7.154931E-21
         1386.345    7.151413E-21
         1387.874    7.147853E-21
         1389.403    7.144254E-21
         1390.935    7.140940E-21
         1392.468    7.137794E-21
         1394.002    7.134611E-21
          1395.54    7.131383E-21
         1397.078    7.128118E-21
         1398.618    7.124814E-21
          1400.16    7.121542E-21
         1401.703    7.118867E-21
         1403.248    7.116156E-21
         1404.795    7.113404E-21
         1406.343    7.110615E-21
         1407.894    7.107788E-21
         1409.446    7.104922E-21
         1410.999    7.102251E-21
         1412.555    7.099669E-21
         1414.112    7.097050E-21
          1415.67    7.094397E-21
         1417.231    7.091703E-21
         1418.793    7.088973E-21
         1420.357    7.086170E-21
         1421.923    7.083210E-21
         1423.491    7.080210E-21
         1425.059    7.077175E-21
          1426.63    7.074100E-21
         1428.203    7.070989E-21
         1429.777    7.067841E-21
         1431.354    7.064199E-21
         1432.932    7.060445E-21
          1434.51    7.056654E-21
         1436.092    7.052820E-21
         1437.676    7.048946E-21
          1439.26    7.045038E-21
         1440.847    7.040530E-21
         1442.435    7.035494E-21
         1444.024    7.030420E-21
         1445.617    7.025298E-21
          1447.21    7.020140E-21
         1448.805    7.014938E-21
         1450.402    7.009300E-21
         1452.001    7.002443E-21
         1453.602    6.995534E-21
         1455.205    6.988583E-21
         1456.808    6.981593E-21
         1458.414    6.974551E-21
         1460.022    6.967440E-21
         1461.631    6.958372E-21
         1463.243    6.949256E-21
         1464.856    6.940091E-21
          1466.47    6.930882E-21
         1468.086    6.921617E-21
         1469.706    6.912300E-21
         1471.325    6.900904E-21
         1472.947    6.888995E-21
         1474.571    6.877034E-21
         1476.196    6.865024E-21
         1477.824    6.852947E-21
         1479.453    6.840827E-21
         1481.083    6.826742E-21
         1482.716    6.811623E-21
          1484.35    6.796448E-21
         1485.987    6.781215E-21
         1487.625    6.771070E-21
         1489.264    6.769152E-21
         1490.906    6.765249E-21
         1492.549    6.759695E-21
         1494.195    6.753978E-21
         1495.842    6.748097E-21
         1497.491    6.742054E-21
         1499.142    6.735846E-21
         1500.794    6.725234E-21
         1502.449    6.709819E-21
         1504.105    6.694212E-21
         1505.763    6.678392E-21
         1507.423    6.662365E-21
         1509.084    6.646141E-21
         1510.748    6.628525E-21
         1512.414    6.609274E-21
          1514.08    6.589818E-21
         1515.749    6.570140E-21
         1517.419    6.550257E-21
         1519.093    6.530141E-21
         1520.768    6.509109E-21
         1522.444    6.487020E-21
         1524.122    6.464723E-21
         1525.802    6.442202E-21
         1527.484    6.419466E-21
         1529.168    6.396513E-21
         1530.854    6.372994E-21
          1532.54    6.348929E-21
          1534.23    6.324638E-21
         1535.921    6.300133E-21
         1537.615    6.275403E-21
          1539.31    6.250484E-21
         1541.006    6.225515E-21
         1542.705    6.200452E-21
         1544.405    6.175193E-21
         1546.109    6.139777E-21
         1547.812    6.099037E-21
         1549.518    6.058280E-21
         1551.227    6.018328E-21
         1552.936    5.978716E-21
         1554.648    5.939088E-21
         1556.363    5.899442E-21
         1558.078    5.859838E-21
         1559.795    5.820222E-21
         1561.515    5.782360E-21
         1563.235    5.744759E-21
         1564.958    5.707141E-21
         1566.685    5.669506E-21
         1568.411    5.631909E-21
          1570.14    5.594511E-21
         1571.871    5.559543E-21
         1573.603    5.524593E-21
         1575.338    5.489623E-21
         1577.075    5.454633E-21
         1578.813    5.419676E-21
         1580.553    5.385798E-21
         1582.295    5.354285E-21
         1584.039    5.322748E-21
         1585.785    5.291205E-21
         1587.534    5.259656E-21
         1589.284    5.228101E-21
         1591.036    5.198913E-21
          1592.79    5.171358E-21
         1594.545    5.143805E-21
         1596.303    5.116228E-21
         1598.062    5.088638E-21
         1599.824    5.061039E-21
         1601.588    5.037533E-21
         1603.353    5.014476E-21
          1605.12    4.991394E-21
          1606.89    4.968295E-21
         1608.661    4.945180E-21
         1610.434    4.923220E-21
          1612.21    4.904847E-21
         1613.986    4.886466E-21
         1615.765    4.868057E-21
         1617.548    4.849617E-21
          1619.33    4.831178E-21
         1621.115    4.815763E-21
         1622.902    4.802162E-21
          1624.69    4.788547E-21
         1626.482    4.774898E-21
         1628.275    4.761242E-21
         1630.069    4.747753E-21
         1631.867    4.739027E-21
         1633.665    4.730289E-21
         1635.466    4.721523E-21
         1637.269    4.712742E-21
         1639.074    4.703943E-21
          1640.88    4.697641E-21
         1642.689    4.693968E-21
           1644.5    4.690282E-21
         1646.313    4.686584E-21
         1648.128    4.683151E-21
         1649.944    4.683384E-21
         1651.763    4.688726E-21
         1653.585    4.694232E-21
         1655.407    4.699730E-21
         1657.232    4.705229E-21
         1659.058    4.710722E-21
         1660.888    4.718595E-21
         1662.719    4.729000E-21
         1664.552    4.739426E-21
         1666.386    4.749868E-21
         1668.223    4.760334E-21
         1670.062    4.770968E-21
         1671.903    4.785863E-21
         1673.746    4.800801E-21
          1675.59    4.815776E-21
         1677.437    4.830805E-21
         1679.287    4.845879E-21
         1681.139    4.863391E-21
         1682.991    4.882444E-21
         1684.847    4.901577E-21
         1686.704    4.920780E-21
         1688.563    4.940043E-21
         1690.425    4.960165E-21
         1692.287    4.982944E-21
         1694.153    5.005830E-21
         1696.021    5.028811E-21
          1697.89    5.051875E-21
         1699.762    5.075057E-21
         1701.636    5.100874E-21
         1703.512    5.127182E-21
         1705.389    5.153592E-21
         1707.269    5.180136E-21
         1709.151    5.206799E-21
         1711.035    5.234983E-21
         1712.922    5.264456E-21
         1714.809    5.294057E-21
         1716.699    5.323810E-21
         1718.592    5.353708E-21
         1720.485    5.384257E-21
         1722.383    5.416517E-21
         1724.281    5.448900E-21
         1726.182    5.481463E-21
         1728.086    5.514205E-21
          1729.99    5.547079E-21
         1731.897    5.581844E-21
         1733.806    5.616798E-21
         1735.718    5.651932E-21
          1737.63    5.687227E-21
         1739.546    5.722720E-21
         1741.463    5.759406E-21
         1743.383    5.796599E-21
         1745.305    5.833984E-21
         1747.228    5.871549E-21
         1749.154    5.909330E-21
         1751.084     1.866309E-6
         1753.013     5.214550E-6
         1754.946     8.600488E-6
          1756.88     1.202286E-5
         1758.817     1.548168E-5
         1760.756     1.897833E-5
         1762.697     2.251396E-5
         1764.639     2.608598E-5
         1766.585     2.969802E-5
         1768.532     3.334873E-5
         1770.482     3.703949E-5
         1772.434     4.077319E-5
         1774.387     4.454694E-5
         1776.343     4.835955E-5
         1778.301     5.221457E-5
         1780.262     5.611339E-5
         1782.224     6.005535E-5
         1784.189     6.404161E-5
         1786.156     6.807051E-5
         1788.124     7.214025E-5
         1790.096     7.625739E-5
         1792.068     8.042305E-5
         1794.044     8.463537E-5
         1796.022     8.889256E-5
         1798.001     9.319280E-5
         1799.984     9.754270E-5
         1801.968     1.019459E-4
         1803.954     1.063959E-4
         1805.942     1.108911E-4
         1807.933     1.154356E-4
         1809.926     1.200277E-4
         1811.922     1.246812E-4
         1813.919     1.293840E-4
         1815.918     1.341339E-4
          1817.92     1.389362E-4
         1819.925     1.437906E-4
          1821.93     1.487055E-4
         1823.938     1.536745E-4
         1825.948     1.586933E-4
         1827.962     1.637693E-4
         1829.976     1.688928E-4
         1831.995     1.740919E-4
         1834.013     1.793400E-4
         1836.035     1.846454E-4
         1838.059     1.900056E-4
         1840.084     1.954190E-4
         1842.113     2.009089E-4
         1844.144     2.064556E-4
         1846.177     2.120593E-4
         1848.212     2.177208E-4
         1850.248     2.291513E-4
         1852.288     2.683479E-4
          1854.33     2.326948E-4
         1856.375     2.465333E-4
         1858.421     2.684486E-4
         1860.469     2.786309E-4
          1862.52     2.886247E-4
         1864.573     2.867438E-4
         1866.628     2.967205E-4
         1868.686     2.926994E-4
         1870.746     3.078426E-4
         1872.808     3.344411E-4
         1874.872     3.450264E-4
         1876.939     3.630277E-4
         1879.008     3.866746E-4
         1881.079     3.965661E-4
         1883.153     4.097971E-4
         1885.229     4.267507E-4
         1887.307     4.292671E-4
         1889.387     4.410009E-4
         1891.471     4.580424E-4
         1893.555     4.911625E-4
         1895.643     5.092283E-4
         1897.732     5.273868E-4
         1899.823     5.498247E-4
         1901.919     5.610183E-4
         1904.014     5.726452E-4
         1906.113     6.005261E-4
         1908.215     6.191014E-4
         1910.317     6.464935E-4
         1912.424     6.620979E-4
         1914.532     6.824338E-4
         1916.643     7.039590E-4
         1918.755     7.285286E-4
          1920.87     7.541291E-4
         1922.988     7.714994E-4
         1925.107     7.951776E-4
          1927.23     8.242275E-4
         1929.354     8.543502E-4
         1931.481     8.766836E-4
          1933.61     8.943221E-4
          1935.74     9.337722E-4
         1937.875     9.574370E-4
         1940.011     9.930012E-4
         1942.149     0.001018946
          1944.29     0.001039017
         1946.434     0.001061573
          1948.58     0.001089438
         1950.728     0.001126937
         1952.878     0.001158884
          1955.03     0.001182662
         1957.185     0.001202494
         1959.343     0.001237115
         1961.503      0.00126969
         1963.665      0.00129609
         1965.829     0.001331426
         1967.996     0.001370678
         1970.167       0.0013982
         1972.339     0.001416905
         1974.512     0.001453876
         1976.689     0.001489215
         1978.868     0.001510639
         1981.049     0.001543582
         1983.233     0.001564004
         1985.418     0.001597651
         1987.607     0.001627148
         1989.798     0.001652637
         1991.992     0.001687665
         1994.188     0.001720063
         1996.386     0.001734316
         1998.586     0.001770427
         2000.789     0.001788086
         2002.996     0.001819648
         2005.203     0.001851646
         2007.414     0.001872285
         2009.627     0.001899839
         2011.841     0.001935432
          2014.06     0.001959818
         2016.279     0.001971785
         2018.502     0.001997467
         2020.727     0.002020605
         2022.955     0.002044133
         2025.185     0.002073532
         2027.417     0.002102404
         2029.652     0.002118652
         2031.889     0.002145285
         2034.129      0.00215711
         2036.371     0.002184736
         2038.616     0.002203846
         2040.864     0.002219252
         2043.112     0.002245309
         2045.365     0.002259105
         2047.621     0.002279669
         2049.877     0.002308534
         2052.137     0.002317172
         2054.399     0.002339688
         2056.664     0.002363972
         2058.931     0.002381317
         2061.201     0.002391085
         2063.472     0.002403097
         2065.747     0.002425831
         2068.024     0.002439366
         2070.304     0.002448042
         2072.586      0.00246058
         2074.871     0.002480687
         2077.157     0.002490686
         2079.447      0.00250186
          2081.74     0.002519738
         2084.034     0.002534978
         2086.332     0.002544448
         2088.632     0.002556518
         2090.933     0.002572079
          2093.24      0.00257582
         2095.546     0.002588148
         2097.856     0.002605009
         2100.169     0.002611049
         2102.483     0.002625695
         2104.802     0.002637422
         2107.121      0.00264685
         2109.444     0.002651547
         2111.769     0.002668582
         2114.097     0.002666109
         2116.428     0.002685559
          2118.76     0.002689512
         2121.097      0.00269838
         2123.434     0.002706811
         2125.775     0.002713955
         2128.118     0.002721984
         2130.463     0.002729351
         2132.813     0.002731941
         2135.163     0.002740349
         2137.518     0.002739005
         2139.875     0.002748975
         2142.231     0.002750884
         2144.594     0.002759283
         2146.958     0.002756111
         2149.325     0.002761434
         2151.693     0.002771442
         2154.065     0.002778594
          2156.44     0.002781966
         2158.817     0.002781441
         2161.197     0.002781883
         2163.578     0.002778714
         2165.964     0.002780085
         2168.353     0.002779149
         2170.743     0.002774259
         2173.135     0.002785143
         2175.529     0.002786942
         2177.929     0.002780704
         2180.329     0.002777436
         2182.733     0.002778394
         2185.138      0.00277142
         2187.547     0.002773616
         2189.959     0.002765676
         2192.372     0.002761623
         2194.789     0.002758546
         2197.208     0.002752265
         2199.632     0.002742847
         2202.056     0.002753289
         2204.482     0.002766561
         2206.912     0.002774945
         2209.345     0.002787421
         2211.782     0.002796527
         2214.219     0.002803648
          2216.66     0.002815214
         2219.104     0.002825868
         2221.549     0.002833637
         2223.998     0.002837877
         2226.449     0.002845792
         2228.904     0.002855489
         2231.361     0.002862217
          2233.82      0.00286156
         2236.284     0.002864322
         2238.748     0.002864666
         2241.217     0.002867483
         2243.687     0.002872103
         2246.159     0.002868619
         2248.636     0.002870114
         2251.114     0.002869001
         2253.597     0.002866307
          2256.08     0.002863164
         2258.567     0.002859919
         2261.057     0.002854304
         2263.548     0.002848152
         2266.045      0.00283515
         2268.542     0.002828948
         2271.042     0.002829126
         2273.546     0.002820052
         2276.051     0.002814812
         2278.562     0.002795456
         2281.072     0.002791162
         2283.588     0.002774718
         2286.104     0.002769625
         2288.623     0.002752296
         2291.147     0.002733608
         2293.672     0.002726203
         2296.202     0.002705334
         2298.732     0.002688451
         2301.266     0.002673682
         2303.803       0.0026503
         2306.342     0.002634281
         2308.885     0.002619744
         2311.431     0.002607837
