#  Table pcf255wsys.tab  Mon 12:21:08 02-Jun-97

#      WAVELENGTH      THROUGHPUT
#       angstroms                

            1216.    2.257457E-22
          1217.34    2.289046E-22
         1218.682    2.320899E-22
         1220.026    2.352918E-22
         1221.371    2.378084E-22
         1222.717    2.403426E-22
         1224.065    2.428975E-22
         1225.414    2.454714E-22
         1226.765    2.480649E-22
         1228.117    2.506779E-22
         1229.471    2.533103E-22
         1230.826    2.555665E-22
         1232.183    2.575851E-22
         1233.542    2.596169E-22
         1234.901    2.616594E-22
         1236.262    2.637153E-22
         1237.625    2.657829E-22
         1238.989    2.678642E-22
         1240.355    2.698242E-22
         1241.722    2.714074E-22
         1243.091    2.729993E-22
         1244.461    2.745989E-22
         1245.833    2.762057E-22
         1247.207    2.778219E-22
         1248.582    2.794454E-22
         1249.957    2.810759E-22
         1251.335    2.823414E-22
         1252.715    2.835999E-22
         1254.095    2.848627E-22
         1255.478    2.861316E-22
         1256.862    2.874048E-22
         1258.247    2.886823E-22
         1259.634    2.899654E-22
         1261.023    2.910188E-22
         1262.413    2.919913E-22
         1263.805    2.929665E-22
         1265.198    2.939446E-22
         1266.592    2.949249E-22
         1267.989    2.959087E-22
         1269.387    2.968956E-22
         1270.786    2.977336E-22
         1272.187    2.984558E-22
         1273.588    2.991789E-22
         1274.992    2.999036E-22
         1276.399    3.006299E-22
         1277.805    3.013569E-22
         1279.214    3.020853E-22
         1280.624    3.027222E-22
         1282.035    3.032420E-22
         1283.449    3.037627E-22
         1284.864    3.042834E-22
          1286.28    3.048038E-22
         1287.698    3.053249E-22
         1289.117    3.058461E-22
         1290.538    3.063102E-22
         1291.961    3.066798E-22
         1293.385    3.070490E-22
         1294.811    3.074176E-22
         1296.238    3.077859E-22
         1297.668    3.081540E-22
         1299.098    3.085212E-22
          1300.53    3.088528E-22
         1301.963    3.091235E-22
         1303.398    3.093932E-22
         1304.835    3.096622E-22
         1306.274    3.099305E-22
         1307.713    3.101976E-22
         1309.155    3.104640E-22
         1310.597    3.106985E-22
         1312.042    3.108882E-22
         1313.489    3.110766E-22
         1314.937    3.112641E-22
         1316.386    3.114501E-22
         1317.837    3.116351E-22
          1319.29    3.118189E-22
         1320.744    3.119710E-22
           1322.2    3.120927E-22
         1323.657    3.122129E-22
         1325.117    3.123318E-22
         1326.578    3.124492E-22
         1328.039    3.125651E-22
         1329.503    3.126796E-22
         1330.969    3.127572E-22
         1332.436    3.128149E-22
         1333.905    3.128709E-22
         1335.376    3.129253E-22
         1336.847    3.129780E-22
         1338.321    3.130290E-22
         1339.796    3.130783E-22
         1341.273    3.130947E-22
         1342.752    3.131042E-22
         1344.232    3.131119E-22
         1345.713    3.131179E-22
         1347.197    3.131219E-22
         1348.682    3.131241E-22
         1350.169    3.131214E-22
         1351.657    3.130933E-22
         1353.146    3.130632E-22
         1354.638    3.129987E-22
         1356.131    3.128889E-22
         1357.627    3.127773E-22
         1359.123    3.126641E-22
         1360.621    3.125428E-22
         1362.121    3.124110E-22
         1363.622    3.122774E-22
         1365.126    3.121420E-22
          1366.63    3.120048E-22
         1368.137    3.118658E-22
         1369.645    3.117249E-22
         1371.155    3.115818E-22
         1372.667    3.114366E-22
          1374.18    3.112896E-22
         1375.694    3.111408E-22
         1377.211    3.109901E-22
         1378.729    3.108376E-22
         1380.249    3.106847E-22
         1381.771    3.105377E-22
         1383.294    3.103888E-22
         1384.818    3.102382E-22
         1386.345    3.100857E-22
         1387.874    3.099313E-22
         1389.403    3.097753E-22
         1390.935    3.096316E-22
         1392.468    3.094952E-22
         1394.002    3.093572E-22
          1395.54    3.092172E-22
         1397.078    3.090756E-22
         1398.618    3.089324E-22
          1400.16    3.087905E-22
         1401.703    3.086745E-22
         1403.248    3.085569E-22
         1404.795    3.084376E-22
         1406.343    3.083167E-22
         1407.894    3.081941E-22
         1409.446    3.080698E-22
         1410.999    3.079540E-22
         1412.555    3.078421E-22
         1414.112    3.077285E-22
          1415.67    3.076134E-22
         1417.231    3.074967E-22
         1418.793    3.073783E-22
         1420.357    3.072568E-22
         1421.923    3.071284E-22
         1423.491    3.069983E-22
         1425.059    3.068667E-22
          1426.63    3.067335E-22
         1428.203    3.065985E-22
         1429.777    3.064620E-22
         1431.354    3.063041E-22
         1432.932    3.061413E-22
          1434.51    3.059769E-22
         1436.092    3.058107E-22
         1437.676    3.056428E-22
          1439.26    3.054733E-22
         1440.847    3.052778E-22
         1442.435    3.050594E-22
         1444.024    3.048394E-22
         1445.617    3.046174E-22
          1447.21    3.043937E-22
         1448.805    3.041681E-22
         1450.402    3.039236E-22
         1452.001    3.036264E-22
         1453.602    3.033268E-22
         1455.205    3.030254E-22
         1456.808    3.027223E-22
         1458.414    3.024170E-22
         1460.022    3.021086E-22
         1461.631    3.017154E-22
         1463.243    3.013202E-22
         1464.856    3.009227E-22
          1466.47    3.005234E-22
         1468.086    3.001218E-22
         1469.706    2.997177E-22
         1471.325    2.992236E-22
         1472.947    2.987073E-22
         1474.571    2.981886E-22
         1476.196    2.976678E-22
         1477.824    2.971442E-22
         1479.453    2.966187E-22
         1481.083    2.960079E-22
         1482.716    2.953524E-22
          1484.35    2.946944E-22
         1485.987    2.940339E-22
         1487.625    2.935940E-22
         1489.264    2.935108E-22
         1490.906    2.933416E-22
         1492.549    2.931008E-22
         1494.195    2.928529E-22
         1495.842    2.925979E-22
         1497.491    2.923359E-22
         1499.142    2.920667E-22
         1500.794    2.916065E-22
         1502.449    2.909381E-22
         1504.105    2.902614E-22
         1505.763    2.895755E-22
         1507.423    2.888805E-22
         1509.084    2.881771E-22
         1510.748    2.874132E-22
         1512.414    2.865786E-22
          1514.08    2.857349E-22
         1515.749    2.848817E-22
         1517.419    2.840196E-22
         1519.093    2.831473E-22
         1520.768    2.822354E-22
         1522.444    2.812776E-22
         1524.122    2.803108E-22
         1525.802    2.793343E-22
         1527.484    2.783484E-22
         1529.168    2.773532E-22
         1530.854    2.763334E-22
          1532.54    3.285937E-12
          1534.23    6.863482E-12
         1535.921    1.041717E-11
         1537.615    1.394797E-11
          1539.31    1.745085E-11
         1541.006    2.093052E-11
         1542.705    2.438545E-11
         1544.405    2.781293E-11
         1546.109    3.116725E-11
         1547.812    3.445152E-11
         1549.518    3.769446E-11
         1551.227    4.090015E-11
         1552.936    4.406438E-11
         1554.648    4.718837E-11
         1556.363    5.027222E-11
         1558.078    5.331123E-11
         1559.795    5.630946E-11
         1561.515    5.928403E-11
         1563.235    6.221953E-11
         1564.958    6.511653E-11
         1566.685    6.797511E-11
         1568.411    7.079096E-11
          1570.14    7.357087E-11
         1571.871    7.634435E-11
         1573.603    7.907923E-11
         1575.338    8.177831E-11
         1577.075    8.444145E-11
         1578.813    8.706475E-11
         1580.553    8.967001E-11
         1582.295    9.227818E-11
         1584.039    9.485425E-11
         1585.785    9.739656E-11
         1587.534    9.990516E-11
         1589.284    1.023800E-10
         1591.036    1.048689E-10
          1592.79    1.073607E-10
         1594.545    1.098218E-10
         1596.303    1.122547E-10
         1598.062    1.146581E-10
         1599.824    1.170319E-10
         1601.588    1.194735E-10
         1603.353    1.218999E-10
          1605.12    1.243029E-10
          1606.89    1.266816E-10
         1608.661    1.290355E-10
         1610.434    1.313959E-10
          1612.21    1.338313E-10
         1613.986    1.362464E-10
         1615.765    1.386431E-10
         1617.548    1.410219E-10
          1619.33    1.433787E-10
         1621.115    1.458097E-10
         1622.902    1.482815E-10
          1624.69    1.507381E-10
         1626.482    1.531832E-10
         1628.275    1.556122E-10
         1630.069    1.580345E-10
         1631.867    1.606056E-10
         1633.665    1.631670E-10
         1635.466    1.657231E-10
         1637.269    1.682698E-10
         1639.074    1.708082E-10
          1640.88    1.734300E-10
         1642.689    1.761473E-10
           1644.5    1.788628E-10
         1646.313    1.815764E-10
         1648.128    1.842991E-10
         1649.944    1.871659E-10
         1651.763    1.902448E-10
         1653.585    1.933417E-10
         1655.407    1.964450E-10
         1657.232    1.995599E-10
         1659.058    2.026831E-10
         1660.888    2.059230E-10
         1662.719    2.092863E-10
         1664.552    2.126665E-10
         1666.386    2.160621E-10
         1668.223    2.194764E-10
         1670.062    2.229145E-10
         1671.903    2.265711E-10
         1673.746    2.302511E-10
          1675.59    2.339534E-10
         1677.437    2.376817E-10
         1679.287    2.414341E-10
         1681.139    2.453332E-10
         1682.991    2.493331E-10
         1684.847    2.533657E-10
         1686.704    2.574292E-10
         1688.563    2.615217E-10
         1690.425    2.656908E-10
         1692.287    2.700293E-10
         1694.153    2.744072E-10
         1696.021    2.788227E-10
          1697.89    2.832734E-10
         1699.762    2.877665E-10
         1701.636    2.924417E-10
         1703.512    2.971818E-10
         1705.389    3.019626E-10
         1707.269    3.067901E-10
         1709.151    3.116618E-10
         1711.035    3.166629E-10
         1712.922    3.217820E-10
         1714.809    3.269486E-10
         1716.699    3.321675E-10
         1718.592    3.374370E-10
         1720.485    3.427882E-10
         1722.383    3.482956E-10
         1724.281    3.538521E-10
         1726.182    3.594677E-10
         1728.086    3.651423E-10
          1729.99    3.708681E-10
         1731.897    3.767691E-10
         1733.806    3.827316E-10
         1735.718    3.887553E-10
          1737.63    3.948375E-10
         1739.546    4.009847E-10
         1741.463    4.072663E-10
         1743.383    4.136352E-10
         1745.305    4.200703E-10
         1747.228    4.265688E-10
         1749.154    4.331379E-10
         1751.084    4.393935E-10
         1753.013    4.453955E-10
         1754.946    4.514492E-10
          1756.88    4.575522E-10
         1758.817    4.637044E-10
         1760.756    4.699302E-10
         1762.697    4.762435E-10
         1764.639    4.826052E-10
         1766.585    4.890218E-10
         1768.532    4.954907E-10
         1770.482    5.020279E-10
         1772.434    5.086654E-10
         1774.387    5.153572E-10
         1776.343    5.221009E-10
         1778.301    5.289026E-10
         1780.262    5.357714E-10
         1782.224    5.427421E-10
         1784.189    5.497735E-10
         1786.156    5.568626E-10
         1788.124    5.640062E-10
         1790.096    5.712180E-10
         1792.068    5.785474E-10
         1794.044    5.859407E-10
         1796.022    5.933946E-10
         1798.001    6.009060E-10
         1799.984    6.084860E-10
         1801.968    6.161838E-10
         1803.954    6.239453E-10
         1805.942    6.317671E-10
         1807.933    6.396560E-10
         1809.926    6.476093E-10
         1811.922    6.556967E-10
         1813.919    6.638524E-10
         1815.918    6.720709E-10
          1817.92    6.803610E-10
         1819.925    6.887220E-10
          1821.93    6.972112E-10
         1823.938    7.057761E-10
         1825.948    7.144074E-10
         1827.962    7.231175E-10
         1829.976    7.318897E-10
         1831.995    7.408164E-10
         1834.013    7.498077E-10
         1836.035    7.588771E-10
         1838.059    7.680204E-10
         1840.084    7.772362E-10
         1842.113    7.866027E-10
         1844.144    7.960453E-10
         1846.177    8.055647E-10
         1848.212    8.151619E-10
         1850.248    8.248416E-10
         1852.288    8.346736E-10
          1854.33    8.445859E-10
         1856.375    8.545841E-10
         1858.421    8.646526E-10
         1860.469    8.748270E-10
          1862.52    8.851450E-10
         1864.573    8.955514E-10
         1866.628    9.060425E-10
         1868.686    9.166179E-10
         1870.746    9.273087E-10
         1872.808    9.381395E-10
         1874.872    9.490524E-10
         1876.939    9.600589E-10
         1879.008    9.711503E-10
         1881.079    9.815427E-10
         1883.153    9.920480E-10
         1885.229     1.002624E-9
         1887.307     1.013266E-9
         1889.387     1.023985E-9
         1891.471     3.365254E-8
         1893.555     8.025341E-8
         1895.643     1.273729E-7
         1897.732     1.749857E-7
         1899.823     2.230740E-7
         1901.919     2.717333E-7
         1904.014     3.208540E-7
         1906.113     3.705134E-7
         1908.215     4.206880E-7
         1910.317     5.189073E-7
         1912.424     8.875646E-7
         1914.532     1.259807E-6
         1916.643     1.636340E-6
         1918.755     2.016485E-6
          1920.87     2.400848E-6
         1922.988     2.789338E-6
         1925.107     3.181706E-6
          1927.23     3.578539E-6
         1929.354     3.979073E-6
         1931.481     4.203425E-6
          1933.61     4.350744E-6
          1935.74     4.499388E-6
         1937.875     4.649598E-6
         1940.011     4.801064E-6
         1942.149     4.954295E-6
          1944.29     5.108963E-6
         1946.434     5.265081E-6
          1948.58     5.422647E-6
         1950.728     5.572836E-6
         1952.878     5.707046E-6
          1955.03     5.842398E-6
         1957.185     5.979024E-6
         1959.343     6.116854E-6
         1961.503     6.256077E-6
         1963.665     6.396600E-6
         1965.829     6.538287E-6
         1967.996     6.681281E-6
         1970.167     6.824883E-6
         1972.339     6.961095E-6
         1974.512     7.098401E-6
         1976.689     7.236945E-6
         1978.868     7.376655E-6
         1981.049     7.517666E-6
         1983.233     7.660001E-6
         1985.418     7.803449E-6
         1987.607     7.948172E-6
         1989.798     8.094090E-6
         1991.992     8.332939E-6
         1994.188     8.583325E-6
         1996.386     8.835987E-6
         1998.586     9.090816E-6
         2000.789     9.351103E-6
         2002.996     9.619602E-6
         2005.203     9.890655E-6
         2007.414     1.016468E-5
         2009.627     1.044156E-5
         2011.841     1.068072E-5
          2014.06     1.091425E-5
         2016.279     1.114985E-5
         2018.502     1.138791E-5
         2020.727     1.162827E-5
         2022.955     1.187088E-5
         2025.185     1.211586E-5
         2027.417     1.236322E-5
         2029.652     1.261297E-5
         2031.889     1.306555E-5
         2034.129     1.356027E-5
         2036.371     1.406032E-5
         2038.616     1.456565E-5
         2040.864     1.507616E-5
         2043.112     1.559153E-5
         2045.365     1.611253E-5
         2047.621     1.663920E-5
         2049.877     1.717077E-5
         2052.137     1.774174E-5
         2054.399     1.832045E-5
         2056.664     1.890507E-5
         2058.931     1.949569E-5
         2061.201     2.009156E-5
         2063.472     2.069248E-5
         2065.747     2.129963E-5
         2068.024     2.191284E-5
         2070.304     2.254404E-5
         2072.586     2.325980E-5
         2074.871     2.398253E-5
         2077.157     2.471211E-5
         2079.447     2.544911E-5
          2081.74     2.619185E-5
         2084.034     2.694047E-5
         2086.332     2.769651E-5
         2088.632     2.845980E-5
         2090.933     2.932849E-5
          2093.24     3.035202E-5
         2095.546     3.138420E-5
         2097.856     3.242670E-5
         2100.169     3.347886E-5
         2102.483     3.453661E-5
         2104.802     3.560529E-5
         2107.121     3.668261E-5
         2109.444     3.777042E-5
         2111.769     3.899798E-5
         2114.097     4.027773E-5
         2116.428     4.156891E-5
          2118.76     4.287106E-5
         2121.097     4.418263E-5
         2123.434     4.550035E-5
         2125.775     4.682999E-5
         2128.118     4.817110E-5
         2130.463     4.957865E-5
         2132.813     5.122755E-5
         2135.163     5.288862E-5
         2137.518     5.456515E-5
         2139.875     5.627134E-5
         2142.231     5.798353E-5
         2144.594     5.971235E-5
         2146.958     6.145512E-5
         2149.325     6.321265E-5
         2151.693     6.537589E-5
         2154.065     6.771498E-5
          2156.44     7.007334E-5
         2158.817     7.245131E-5
         2161.197     7.484021E-5
         2163.578     7.723743E-5
         2165.964     7.965495E-5
         2168.353     8.209241E-5
         2170.743     8.472883E-5
         2173.135     8.778716E-5
         2175.529     9.086813E-5
         2177.929     9.397512E-5
         2180.329     9.709779E-5
         2182.733     1.002218E-4
         2185.138     1.033642E-4
         2187.547     1.065296E-4
         2189.959     1.097167E-4
         2192.372     1.138412E-4
         2194.789     1.180096E-4
         2197.208     1.222049E-4
         2199.632     1.264284E-4
         2202.056     1.314367E-4
         2204.482     1.366605E-4
         2206.912     1.419717E-4
         2209.345     1.473679E-4
         2211.782     1.539829E-4
         2214.219     1.611171E-4
          2216.66     1.683709E-4
         2219.104     1.757414E-4
         2221.549     1.832061E-4
         2223.998     1.907782E-4
         2226.449     1.984669E-4
         2228.904     2.062736E-4
         2231.361     2.153668E-4
          2233.82     2.255450E-4
         2236.284     2.358890E-4
         2238.748     2.463795E-4
         2241.217     2.570161E-4
         2243.687     2.677758E-4
         2246.159     2.786914E-4
         2248.636     2.897747E-4
         2251.114     3.024898E-4
         2253.597     3.172339E-4
          2256.08     3.321753E-4
         2258.567     3.473374E-4
         2261.057     3.626909E-4
         2263.548     3.782146E-4
         2266.045     3.939671E-4
         2268.542     4.099176E-4
         2271.042     4.280391E-4
         2273.546     4.491507E-4
         2276.051     4.705373E-4
         2278.562     4.922319E-4
         2281.072     5.141711E-4
         2283.588     5.363852E-4
         2286.104     5.588642E-4
         2288.623     5.816334E-4
         2291.147     6.080717E-4
         2293.672     6.388801E-4
         2296.202     6.701371E-4
         2298.732     7.020342E-4
         2301.266     7.343494E-4
         2303.803     7.670639E-4
         2306.342     8.001924E-4
         2308.885     8.337827E-4
         2311.431     8.723392E-4
