#  Table pcf380wsys.tab  Mon 12:21:10 02-Jun-97

#      WAVELENGTH      THROUGHPUT
#       angstroms                

            1850.     1.155190E-6
         1851.651     9.757357E-7
         1853.301     7.946668E-7
         1854.956     6.114493E-7
         1856.611     4.266674E-7
         1858.267     2.400558E-7
         1859.925     5.149324E-8
         1861.584     8.918538E-8
         1863.246     1.380841E-7
         1864.909     1.874643E-7
         1866.572     2.372919E-7
         1868.237     2.876054E-7
         1869.904     3.384335E-7
         1871.573     3.563633E-7
         1873.242     3.724066E-7
         1874.913     3.885960E-7
         1876.585     4.049333E-7
          1878.26     4.214315E-7
         1879.937     4.379093E-7
         1881.613     3.909050E-7
         1883.292     3.409789E-7
         1884.973     2.905866E-7
         1886.654     2.397851E-7
         1888.338     1.885103E-7
         1890.023     1.376132E-7
         1891.709     1.459150E-7
         1893.396     1.542849E-7
         1895.086     1.627275E-7
         1896.775     1.712277E-7
         1898.469     1.798120E-7
         1900.163     1.887872E-7
         1901.857     2.008924E-7
         1903.555     2.131127E-7
         1905.254     2.254336E-7
         1906.953     2.378464E-7
         1908.655     2.503675E-7
         1910.357     2.555704E-7
         1912.061     2.327622E-7
         1913.768     2.097364E-7
         1915.476     1.865039E-7
         1917.184     1.630789E-7
         1918.894     1.394459E-7
         1920.606     1.203708E-7
          1922.32     1.098612E-7
         1924.035     9.925728E-8
         1925.752     8.856419E-8
          1927.47     7.777016E-8
         1929.189     6.688642E-8
          1930.91     6.191470E-8
         1932.634     6.227400E-8
         1934.358     6.263468E-8
         1936.084     6.299651E-8
         1937.811     6.335976E-8
          1939.54     6.372463E-8
          1941.27     7.456348E-8
         1943.003     8.931457E-8
         1944.737     1.041919E-7
          1946.47     1.191769E-7
         1948.207     1.343068E-7
         1949.947     1.495728E-7
         1951.685     1.301979E-7
         1953.427     1.095291E-7
         1955.171     8.867828E-8
         1956.913     6.767007E-8
          1958.66     4.645237E-8
         1960.408     2.913635E-8
         1962.157     2.516205E-8
         1963.908     2.114998E-8
         1965.658     1.710762E-8
         1967.413     1.302498E-8
         1969.169     8.906450E-9
         1970.925     8.110366E-9
         1972.684     1.033828E-8
         1974.444     1.258380E-8
         1976.205     1.484839E-8
         1977.969     1.713479E-8
         1979.734     1.943768E-8
           1981.5     2.605911E-8
         1983.268     3.350852E-8
         1985.037     4.101695E-8
         1986.809     4.859290E-8
         1988.581     5.622764E-8
         1990.355     6.163028E-8
         1992.131     5.785065E-8
         1993.908     5.403709E-8
         1995.688     5.018473E-8
         1997.467     4.630541E-8
          1999.25     4.238704E-8
         2001.034     3.918018E-8
         2002.818     3.648871E-8
         2004.606     3.376435E-8
         2006.396     3.101340E-8
         2008.184     2.823786E-8
         2009.976     2.543059E-8
         2011.769     2.454142E-8
         2013.565     2.366840E-8
         2015.362     2.278594E-8
         2017.158     2.189518E-8
         2018.958     2.099387E-8
          2020.76     2.199499E-8
         2022.563     2.563570E-8
         2024.368     2.931363E-8
         2026.173     3.302396E-8
         2027.982     3.677189E-8
         2029.791     4.055277E-8
         2031.602     4.294041E-8
         2033.414     4.516064E-8
         2035.228     4.740091E-8
         2037.044     4.966270E-8
         2038.861     5.194335E-8
         2040.681     5.140685E-8
         2042.502     4.609135E-8
         2044.324     4.072675E-8
         2046.147     3.531032E-8
         2047.974     2.983778E-8
           2049.8     2.431582E-8
          2051.63     2.296675E-8
         2053.461     2.212521E-8
         2055.291     2.127612E-8
         2057.125     2.041752E-8
         2058.961     1.955027E-8
         2060.798     2.022491E-8
         2062.637     2.293495E-8
         2064.477     2.566762E-8
         2066.318     2.842446E-8
         2068.164     3.120926E-8
         2070.007     3.399485E-8
         2071.855     3.189634E-8
         2073.704     2.977823E-8
         2075.553     2.764157E-8
         2077.405     2.548515E-8
         2079.259     2.330687E-8
         2081.113     2.267161E-8
         2082.971     2.307507E-8
         2084.829     2.348126E-8
         2086.688     2.389040E-8
          2088.55     2.430283E-8
         2090.414     2.499718E-8
         2092.279     2.667656E-8
         2094.145     2.836934E-8
         2096.014     3.007733E-8
         2097.885     3.179909E-8
         2099.756     3.353374E-8
          2101.63     3.466170E-8
         2103.503     3.570354E-8
         2105.381     3.675438E-8
          2107.26     3.781336E-8
         2109.139     3.887962E-8
         2111.022     3.991191E-8
         2112.906     4.091575E-8
         2114.789     4.192556E-8
         2116.677     4.294399E-8
         2118.564     4.396909E-8
         2120.455     4.435525E-8
         2122.348     4.269505E-8
         2124.241     4.102248E-8
         2126.135     3.933597E-8
         2128.033     3.763479E-8
         2129.932     3.591954E-8
         2131.832     3.511887E-8
         2133.734     3.434590E-8
         2135.637     3.356671E-8
         2137.544     3.278017E-8
          2139.45     3.199549E-8
         2141.359     2.972265E-8
          2143.27     2.682735E-8
         2145.182     2.391094E-8
         2147.096     2.097035E-8
         2149.011     1.800885E-8
         2150.929     1.573805E-8
         2152.848     1.421570E-8
         2154.768     1.268210E-8
         2156.692     1.113524E-8
         2158.615     9.579973E-9
         2160.541     9.052186E-9
         2162.469     1.119532E-8
         2164.397     1.335022E-8
          2166.33     1.552379E-8
         2168.263     1.771090E-8
         2170.196     1.977023E-8
         2172.133     2.060454E-8
          2174.07     2.144330E-8
         2176.011     2.228779E-8
         2177.953     2.313741E-8
         2179.895     2.399154E-8
          2181.84     2.359037E-8
         2183.787     2.311434E-8
         2185.735     2.263552E-8
         2187.686     2.215345E-8
         2189.637     2.166864E-8
          2191.59     2.298435E-8
         2193.546     2.472143E-8
         2195.503     2.646743E-8
         2197.462     2.822173E-8
         2199.423     2.998655E-8
         2201.385     2.869871E-8
         2203.348     2.609787E-8
         2205.315     2.344941E-8
         2207.283     2.075503E-8
         2209.252     1.801617E-8
         2211.222     1.617105E-8
         2213.196     1.487427E-8
          2215.17     1.355648E-8
         2217.147     1.221562E-8
         2219.125     1.085254E-8
         2221.104     9.819409E-9
         2223.086     9.048521E-9
         2225.071     8.264615E-9
         2227.055     7.469575E-9
         2229.042     6.660902E-9
         2231.031     7.496484E-9
         2233.021     9.895129E-9
         2235.015     1.233097E-8
         2237.008     1.479821E-8
         2239.003     1.730028E-8
         2241.002     1.900189E-8
         2242.999     1.988649E-8
         2245.002     2.078362E-8
         2247.005     2.169073E-8
         2249.009     2.260897E-8
         2251.016     2.262810E-8
         2253.024     2.175193E-8
         2255.033     2.086245E-8
         2257.046     1.995895E-8
         2259.061     1.904200E-8
         2261.075     1.833457E-8
         2263.092     1.781235E-8
         2265.112     1.728184E-8
         2267.134     1.674329E-8
         2269.156     1.619709E-8
         2271.181     1.568685E-8
         2273.207     1.520143E-8
         2275.234     1.470898E-8
         2277.266     1.420887E-8
         2279.296     1.370271E-8
          2281.33     1.484085E-8
         2283.366     1.687177E-8
         2285.402     1.892406E-8
         2287.441     2.100275E-8
         2289.483     2.310525E-8
         2291.525     2.411251E-8
          2293.57     2.474937E-8
         2295.615     2.539162E-8
         2297.663     2.604806E-8
         2299.715     2.671325E-8
         2301.765     2.730743E-8
          2303.82     2.789577E-8
         2305.876     2.848972E-8
         2307.932     2.908895E-8
         2309.992     2.969426E-8
         2312.051     3.151447E-8
         2314.116     3.336268E-8
          2316.18     3.522895E-8
         2318.246     3.711510E-8
         2320.315     3.830406E-8
         2322.385     3.547751E-8
         2324.457     3.261470E-8
         2326.531     2.971920E-8
         2328.606     2.678883E-8
         2330.685     2.456277E-8
         2332.764     2.383180E-8
         2334.845     2.309137E-8
         2336.927     2.234163E-8
         2339.012     2.158244E-8
         2341.101     1.995719E-8
         2343.188     1.754354E-8
         2345.279     1.510225E-8
         2347.372     1.263203E-8
         2349.467     1.013449E-8
         2351.562     1.159924E-8
         2353.661     1.445031E-8
         2355.759     1.732729E-8
         2357.862     2.023802E-8
         2359.966     2.317860E-8
         2362.071     2.331256E-8
         2364.179     2.339999E-8
         2366.288     2.348736E-8
         2368.398     2.357472E-8
         2370.512     2.409261E-8
         2372.628     2.596915E-8
         2374.744     2.786245E-8
         2376.863     2.977495E-8
         2378.983     3.170455E-8
         2381.105     3.382525E-8
          2383.23     3.612741E-8
         2385.357     3.845071E-8
         2387.485     4.079418E-8
         2389.615     4.315893E-8
         2391.747     4.464991E-8
         2393.881     4.595390E-8
         2396.017     4.726961E-8
         2398.154     4.859539E-8
         2400.293     4.970591E-8
         2402.435     4.939221E-8
          2404.58     4.907405E-8
         2406.724     4.875167E-8
         2408.872     4.842467E-8
         2411.022     4.721314E-8
         2413.171     4.501636E-8
         2415.326     4.279448E-8
         2417.479     4.055572E-8
         2419.637     3.829264E-8
         2421.796     4.072959E-8
         2423.957     4.414355E-8
          2426.12     4.758818E-8
         2428.284     5.105930E-8
         2430.451     5.324224E-8
         2432.619     5.039850E-8
         2434.789     4.752948E-8
         2436.962     4.463280E-8
         2439.136     4.171064E-8
         2441.312     3.717053E-8
          2443.49     3.153865E-8
          2445.67     2.585572E-8
         2447.853     2.012404E-8
         2450.036     1.449370E-8
         2452.222     1.741695E-8
         2454.409     2.036378E-8
           2456.6     2.333626E-8
         2458.792     2.633218E-8
         2460.985     2.744520E-8
          2463.18     2.622006E-8
         2465.379     2.498365E-8
         2467.579     2.373686E-8
         2469.778     2.248108E-8
         2471.983     2.205437E-8
          2474.19     2.171807E-8
         2476.396     2.137925E-8
         2478.606     2.103685E-8
         2480.817     2.129193E-8
         2483.029     2.257790E-8
         2485.247     2.387520E-8
         2487.462     2.517971E-8
         2489.682     2.649549E-8
         2491.904     2.796950E-8
         2494.125     2.947730E-8
         2496.353     3.099907E-8
         2498.579     3.253018E-8
         2500.808     3.273672E-8
          2503.04     3.058429E-8
         2505.272     2.841601E-8
         2507.509     2.622873E-8
         2509.745     2.402574E-8
         2511.985     2.578314E-8
         2514.225     2.806583E-8
         2516.468     3.036579E-8
         2518.714     3.268412E-8
         2520.962     3.328185E-8
          2523.21     3.155085E-8
         2525.462     2.980478E-8
         2527.715     2.804589E-8
         2529.971     2.627180E-8
         2532.229     2.732713E-8
         2534.486     2.842626E-8
         2536.748     2.953459E-8
          2539.01     3.060033E-8
         2541.277     2.965994E-8
         2543.545     2.715777E-8
         2545.813     2.464666E-8
         2548.084     2.212531E-8
         2550.358     2.014660E-8
         2552.635     2.113177E-8
         2554.911     2.211985E-8
         2557.191     2.311231E-8
         2559.471     2.410722E-8
         2561.755     2.507556E-8
         2564.042     2.603805E-8
         2566.329     2.700349E-8
         2568.619     2.797292E-8
         2570.908     2.821905E-8
         2573.205     2.735826E-8
           2575.5     2.649491E-8
         2577.797     2.562765E-8
         2580.097     2.473311E-8
         2582.399     2.331197E-8
         2584.704     2.188380E-8
          2587.01     2.044984E-8
         2589.318     1.901056E-8
         2591.629     1.976570E-8
          2593.94     2.144703E-8
         2596.254     2.313463E-8
         2598.573     2.483096E-8
         2600.889     2.730011E-8
          2603.21     3.102221E-8
         2605.532     3.475655E-8
         2607.856     3.850579E-8
         2610.185     4.165591E-8
         2612.512     3.763423E-8
         2614.843     3.359103E-8
         2617.177     2.953057E-8
          2619.51     2.545805E-8
         2621.849     2.609199E-8
         2624.188     2.798281E-8
         2626.528     2.988095E-8
         2628.873     3.178777E-8
         2631.217     3.189071E-8
         2633.566     3.031192E-8
         2635.916     2.872623E-8
         2638.267     2.713450E-8
          2640.62     2.581537E-8
         2642.977     2.527313E-8
         2645.334     2.472860E-8
         2647.695     2.418118E-8
         2650.057     2.358999E-8
         2652.422     2.130958E-8
         2654.788     1.902089E-8
         2657.157     1.672090E-8
         2659.526     1.441392E-8
         2661.899     1.420494E-8
         2664.275     1.452304E-8
         2666.652     1.484208E-8
         2669.031     1.516240E-8
         2671.412     1.480870E-8
         2673.796     1.398872E-8
         2676.181     1.316571E-8
          2678.57     1.233859E-8
          2680.96     1.282191E-8
          2683.35     1.526661E-8
         2685.746     1.772554E-8
          2688.14     2.018990E-8
          2690.54     2.308753E-8
         2692.941     2.744887E-8
         2695.343     3.182561E-8
         2697.748     3.622212E-8
         2700.153     4.004559E-8
         2702.563     3.524142E-8
         2704.975     3.040246E-8
         2707.387     2.553107E-8
         2709.804     2.062076E-8
         2712.222     2.194493E-8
         2714.642     2.383235E-8
         2717.063     2.573265E-8
         2719.486     2.764626E-8
         2721.915     2.952006E-8
         2724.343     3.138966E-8
         2726.772     3.327203E-8
         2729.205     3.516722E-8
          2731.64     3.272912E-8
         2734.078     2.815656E-8
         2736.517     2.355368E-8
         2738.958     1.891813E-8
         2741.402     1.625121E-8
         2743.849     1.506124E-8
         2746.296     1.386339E-8
         2748.747     1.265609E-8
         2751.198     1.212711E-8
         2753.653     1.231395E-8
         2756.111     1.250123E-8
         2758.569     1.268883E-8
         2761.031     1.272730E-8
         2763.495     1.255773E-8
         2765.958     1.238796E-8
         2768.427     1.221756E-8
         2770.898     1.264210E-8
         2773.369     1.411125E-8
         2775.844     1.558471E-8
          2778.32     1.706075E-8
         2780.799     2.024789E-8
          2783.28     2.704290E-8
         2785.764     3.385430E-8
         2788.249     4.067672E-8
         2790.736     4.454921E-8
         2793.227     4.136129E-8
          2795.72     3.816609E-8
         2798.213     3.496550E-8
         2800.709     3.368749E-8
         2803.209     3.727782E-8
         2805.709     4.087401E-8
         2808.213     4.448068E-8
         2810.718     4.729678E-8
         2813.226     4.813475E-8
         2815.736     4.897402E-8
         2818.247     4.981507E-8
         2820.764     5.123126E-8
         2823.278     5.396053E-8
         2825.798     5.669905E-8
          2828.32     5.944337E-8
         2830.843     5.757856E-8
         2833.369     4.649369E-8
         2835.898     3.538435E-8
         2838.426     2.426556E-8
         2840.959     2.077079E-8
         2843.495     2.986132E-8
         2846.031     3.896521E-8
         2848.571     4.809475E-8
         2851.112     5.018163E-8
         2853.655     4.318979E-8
         2856.202     3.617972E-8
         2858.751     2.915544E-8
         2861.301     2.764617E-8
         2863.853     3.144880E-8
         2866.407     3.525935E-8
         2868.965     3.908001E-8
         2871.526     3.896269E-8
         2874.087     3.616785E-8
         2876.652     3.336545E-8
         2879.218     3.055946E-8
         2881.788     3.122962E-8
         2884.358     3.342615E-8
         2886.931     3.562710E-8
         2889.507     3.783353E-8
         2892.084     3.853016E-8
         2894.666     3.887002E-8
         2897.248     3.921034E-8
         2899.832     3.955125E-8
         2902.421     4.313010E-8
          2905.01     4.692262E-8
         2907.601     5.070860E-8
         2910.198     5.402119E-8
          2912.79     5.161738E-8
         2915.392     4.921157E-8
         2917.992     4.681285E-8
         2920.594     4.471820E-8
         2923.203     4.363832E-8
         2925.807     4.256277E-8
          2928.42     4.148639E-8
         2931.033     4.291659E-8
         2933.646     4.816595E-8
         2936.266     5.341452E-8
         2938.885     5.864609E-8
         2941.506     5.409498E-8
         2944.131     4.231282E-8
         2946.757     3.056054E-8
         2949.387     1.882409E-8
         2952.018     1.842227E-8
         2954.653     2.145363E-8
          2957.29     2.447879E-8
         2959.926     2.749411E-8
         2962.567     3.798548E-8
          2965.21     4.866554E-8
         2967.856     5.932846E-8
         2970.505     6.766425E-8
         2973.155     6.620275E-8
         2975.808     6.474294E-8
         2978.461     6.328769E-8
         2981.121     6.092887E-8
          2983.78     5.733891E-8
         2986.441     5.375634E-8
         2989.104     5.018152E-8
         2991.772     5.091136E-8
         2994.442     5.380968E-8
         2997.113     5.669966E-8
         2999.788     5.958469E-8
         3002.464     4.900543E-8
         3005.142     3.729462E-8
         3007.826     2.559531E-8
         3010.507     1.738772E-8
         3013.194     2.396602E-8
         3015.883     3.052896E-8
         3018.573     3.707227E-8
         3021.267     4.194150E-8
          3023.96     4.492335E-8
          3026.66     4.790319E-8
          3029.36     5.087205E-8
         3032.062     5.546045E-8
          3034.77     6.054832E-8
         3037.475     6.561415E-8
         3040.186     6.992819E-8
         3042.897     6.413455E-8
         3045.612     5.835430E-8
         3048.332     5.258079E-8
         3051.051     5.068189E-8
         3053.772     5.490177E-8
         3056.497     5.911347E-8
         3059.222     6.330830E-8
         3061.954     6.271995E-8
         3064.685     6.023340E-8
         3067.418     5.775265E-8
         3070.156     5.502822E-8
         3072.896     4.820408E-8
         3075.637     4.140121E-8
          3078.38     3.461668E-8
         3081.126     3.218263E-8
         3083.877     3.598757E-8
         3086.628     3.977751E-8
         3089.381     4.355644E-8
         3092.137     4.613825E-8
         3094.895     4.836914E-8
         3097.659     5.059619E-8
         3100.422     5.392430E-8
         3103.187     6.343972E-8
         3105.955     7.299187E-8
         3108.729     8.259265E-8
         3111.501     8.230064E-8
