#  Table pcf439wsys.tab  Mon 12:21:12 02-Jun-97

#      WAVELENGTH      THROUGHPUT
#       angstroms                

            1850.     1.465604E-8
         1851.651     1.603229E-8
         1853.301     1.742020E-8
         1854.956     1.882387E-8
         1856.611     2.023880E-8
         1858.267     2.166703E-8
         1859.925     2.310946E-8
         1861.584     1.001222E-7
         1863.246     1.815222E-7
         1864.909     2.637253E-7
         1866.572     3.466746E-7
         1868.237     4.304343E-7
         1869.904     5.150522E-7
         1871.573     4.404499E-7
         1873.242     3.553344E-7
         1874.913     2.693704E-7
         1876.585     1.825474E-7
          1878.26     9.479656E-8
         1879.937     6.180709E-9
         1881.613     8.358076E-9
         1883.292     1.416531E-8
         1884.973     2.002533E-8
         1886.654     2.593150E-8
         1888.338     3.189128E-8
         1890.023     4.044816E-8
         1891.709     2.343506E-7
         1893.396     4.299307E-7
         1895.086     6.272944E-7
         1896.775     8.260894E-7
         1898.469     1.026940E-6
         1900.163     1.190571E-6
         1901.857     9.906232E-7
         1903.555     7.886567E-7
         1905.254     5.849092E-7
         1906.953     3.795231E-7
         1908.655     1.722270E-7
         1910.357     1.167579E-8
         1912.061     3.292563E-8
         1913.768     5.437115E-8
         1915.476     7.600241E-8
         1917.184     9.780594E-8
         1918.894     1.197962E-7
         1920.606     1.279383E-7
          1922.32     1.103920E-7
         1924.035     9.269043E-8
         1925.752     7.484200E-8
          1927.47     5.682710E-8
         1929.189     3.866445E-8
          1930.91     5.027848E-8
         1932.634     8.880481E-8
         1934.358     1.276632E-7
         1936.084     1.668297E-7
         1937.811     2.063355E-7
          1939.54     2.462018E-7
          1941.27     2.468406E-7
         1943.003     2.330805E-7
         1944.737     2.191937E-7
          1946.47     2.051978E-7
         1948.207     1.910576E-7
         1949.947     1.767816E-7
         1951.685     1.591559E-7
         1953.427     1.412467E-7
         1955.171     1.231786E-7
         1956.913     1.049728E-7
          1958.66     8.658416E-8
         1960.408     7.236187E-8
         1962.157     7.229973E-8
         1963.908     7.223498E-8
         1965.658     7.216777E-8
         1967.413     7.209787E-8
         1969.169     7.202539E-8
         1970.925     8.968428E-8
         1972.684     1.235280E-7
         1974.444     1.576402E-7
         1976.205     1.920429E-7
         1977.969     2.267779E-7
         1979.734     2.617644E-7
           1981.5     2.687420E-7
         1983.268     2.707251E-7
         1985.037     2.727166E-7
         1986.809     2.747189E-7
         1988.581     2.767296E-7
         1990.355     2.697480E-7
         1992.131     2.266082E-7
         1993.908     1.830931E-7
         1995.688     1.391472E-7
         1997.467     9.490522E-8
          1999.25     5.022968E-8
         2001.034     5.534974E-8
         2002.818     9.707193E-8
         2004.606     1.392828E-7
         2006.396     1.818842E-7
         2008.184     2.248453E-7
         2009.976     2.682765E-7
         2011.769     2.642874E-7
         2013.565     2.596044E-7
         2015.362     2.548667E-7
         2017.158     2.500801E-7
         2018.958     2.452327E-7
          2020.76     2.248457E-7
         2022.563     1.829562E-7
         2024.368     1.406236E-7
         2026.173     9.790315E-8
         2027.982     5.473512E-8
         2029.791     1.117274E-8
         2031.602     1.098425E-7
         2033.414     2.281400E-7
         2035.228     3.475710E-7
         2037.044     4.682146E-7
         2038.861     5.899303E-7
         2040.681     6.351866E-7
         2042.502     5.502674E-7
         2044.324     4.645694E-7
         2046.147     3.780488E-7
         2047.974     2.906374E-7
           2049.8     2.024421E-7
          2051.63     1.769368E-7
         2053.461     1.590175E-7
         2055.291     1.409464E-7
         2057.125     1.226817E-7
         2058.961     1.042418E-7
         2060.798     8.938159E-8
         2062.637     7.927153E-8
         2064.477     6.907259E-8
         2066.318     5.877894E-8
         2068.164     4.837634E-8
         2070.007     3.791275E-8
         2071.855     3.168267E-8
         2073.704     2.539607E-8
         2075.553     1.905606E-8
         2077.405     1.265905E-8
         2079.259     6.198825E-9
         2081.113     5.315929E-9
         2082.971     8.193867E-9
         2084.829     1.109515E-8
         2086.688     1.402140E-8
          2088.55     1.697505E-8
         2090.414     1.963223E-8
         2092.279     2.117890E-8
         2094.145     2.273798E-8
         2096.014     2.431117E-8
         2097.885     2.589711E-8
         2099.756     2.749500E-8
          2101.63     4.230844E-8
         2103.503     5.921163E-8
         2105.381     7.627244E-8
          2107.26     9.347624E-8
         2109.139     1.108101E-7
         2111.022     1.211046E-7
         2112.906     1.253974E-7
         2114.789     1.297168E-7
         2116.677     1.340739E-7
         2118.564     1.384607E-7
         2120.455     1.390721E-7
         2122.348     1.276194E-7
         2124.241     1.160845E-7
         2126.135     1.044565E-7
         2128.033     9.273049E-8
         2129.932     8.091056E-8
         2131.832     6.730600E-8
         2133.734     5.353429E-8
         2135.637     3.966120E-8
         2137.544     2.566655E-8
          2139.45     1.158838E-8
         2141.359     7.057755E-9
          2143.27     6.414727E-9
         2145.182     5.767006E-9
         2147.096     5.113907E-9
         2149.011     4.456154E-9
         2150.929     6.240196E-9
         2152.848     1.064901E-8
         2154.768     1.508961E-8
         2156.692     1.956787E-8
         2158.615     2.406966E-8
         2160.541     2.873901E-8
         2162.469     3.377144E-8
         2164.397     3.883140E-8
          2166.33     4.393510E-8
         2168.263     4.907051E-8
         2170.196     5.276573E-8
         2172.133     4.342651E-8
          2174.07     3.403448E-8
         2176.011     2.457518E-8
         2177.953     1.505547E-8
         2179.895     5.482306E-9
          2181.84     5.467993E-9
         2183.787     6.003375E-9
         2185.735     6.541583E-9
         2187.686     7.083170E-9
         2189.637     7.627537E-9
          2191.59     1.133227E-8
         2193.546     1.578328E-8
         2195.503     2.025750E-8
         2197.462     2.475332E-8
         2199.423     2.927644E-8
         2201.385     2.713176E-8
         2203.348     2.213098E-8
         2205.315     1.704160E-8
         2207.283     1.186689E-8
         2209.252     6.609681E-9
         2211.222     5.596941E-9
         2213.196     7.242082E-9
          2215.17     8.911331E-9
         2217.147     1.060730E-8
         2219.125     1.232888E-8
         2221.104     1.235753E-8
         2223.086     1.101255E-8
         2225.071     9.645294E-9
         2227.055     8.259036E-9
         2229.042     6.849425E-9
         2231.031     6.411367E-9
         2233.021     6.895904E-9
         2235.015     7.387551E-9
         2237.008     7.885136E-9
         2239.003     8.389349E-9
         2241.002     9.273539E-9
         2242.999     1.054186E-8
         2245.002     1.182953E-8
         2247.005     1.313287E-8
         2249.009     1.445354E-8
         2251.016     1.677328E-8
         2253.024     2.008540E-8
         2255.033     2.344070E-8
         2257.046     2.684188E-8
         2259.061     3.028666E-8
         2261.075     2.915515E-8
         2263.092     2.394531E-8
         2265.112     1.866258E-8
         2267.134     1.330976E-8
         2269.156     7.890478E-9
         2271.181     5.627738E-9
         2273.207     5.660409E-9
         2275.234     5.693152E-9
         2277.266     5.726009E-9
         2279.296     5.758872E-9
          2281.33     1.542539E-8
         2283.366     3.033820E-8
         2285.402     4.541323E-8
         2287.441     6.068741E-8
         2289.483     7.614168E-8
         2291.525     8.577486E-8
          2293.57     9.347775E-8
         2295.615     1.012566E-7
         2297.663     1.091613E-7
         2299.715     1.171697E-7
         2301.765     1.318030E-7
          2303.82     1.476923E-7
         2305.876     1.637659E-7
         2307.932     1.800148E-7
         2309.992     1.964612E-7
         2312.051     1.615629E-7
         2314.116     1.259797E-7
          2316.18     9.000925E-8
         2318.246     5.361653E-8
         2320.315     2.192831E-8
         2322.385     1.881009E-8
         2324.457     1.565287E-8
         2326.531     1.246058E-8
         2328.606     9.230828E-9
         2330.685     7.065165E-9
         2332.764     7.137488E-9
         2334.845     7.210305E-9
         2336.927     7.283605E-9
         2339.012     7.357395E-9
         2341.101     7.378667E-9
         2343.188     7.351916E-9
         2345.279     7.324548E-9
         2347.372     7.296542E-9
         2349.467     7.267916E-9
         2351.562     1.155063E-8
         2353.661     1.736317E-8
         2355.759     2.322904E-8
         2357.862     2.916420E-8
         2359.966     3.516074E-8
         2362.071     2.960512E-8
         2364.179     2.379427E-8
         2366.288     1.792608E-8
         2368.398     1.199627E-8
         2370.512     7.526420E-9
         2372.628     7.809114E-9
         2374.744     8.094190E-9
         2376.863     8.382013E-9
         2378.983     8.672267E-9
         2381.105     8.676377E-9
          2383.23     8.413056E-9
         2385.357     8.146879E-9
         2387.485     7.877962E-9
         2389.615     7.606172E-9
         2391.747     1.832719E-8
         2393.881     3.157969E-8
         2396.017     4.496533E-8
         2398.154     5.846773E-8
         2400.293     6.842915E-8
         2402.435     5.526022E-8
          2404.58     4.196600E-8
         2406.724     2.855667E-8
         2408.872     1.501500E-8
         2411.022     9.143715E-9
         2413.171     1.185771E-8
         2415.326     1.460078E-8
         2417.479     1.736277E-8
         2419.637     2.015284E-8
         2421.796     1.993544E-8
         2423.957     1.910048E-8
          2426.12     1.825721E-8
         2428.284     1.740666E-8
         2430.451     1.672069E-8
         2432.619     1.669016E-8
         2434.789     1.665894E-8
         2436.962     1.662702E-8
         2439.136     1.659440E-8
         2441.312     2.278053E-8
          2443.49     3.312838E-8
          2445.67     4.356785E-8
         2447.853     5.409462E-8
         2450.036     6.433376E-8
         2452.222     5.296963E-8
         2454.409     4.151103E-8
           2456.6     2.994989E-8
         2458.792     1.829478E-8
         2460.985     1.276117E-8
          2463.18     1.483217E-8
         2465.379     1.692091E-8
         2467.579     1.902584E-8
         2469.778     2.114466E-8
         2471.983     3.103192E-8
          2474.19     4.187334E-8
         2476.396     5.278054E-8
         2478.606     6.378632E-8
         2480.817     7.143988E-8
         2483.029     7.327068E-8
         2485.247     7.511675E-8
         2487.462     7.697223E-8
         2489.682     7.884285E-8
         2491.904     7.000473E-8
         2494.125     5.931287E-8
         2496.353     4.851644E-8
         2498.579     3.764818E-8
         2500.808     2.897010E-8
          2503.04     2.424092E-8
         2505.272     1.947780E-8
         2507.509     1.467382E-8
         2509.745     9.836196E-9
         2511.985     9.310327E-9
         2514.225     9.342105E-9
         2516.468     9.373944E-9
         2518.714     9.405857E-9
         2520.962     1.090041E-8
          2523.21     1.436787E-8
         2525.462     1.786397E-8
         2527.715     2.138424E-8
         2529.971     2.493337E-8
         2532.229     2.173950E-8
         2534.486     1.843519E-8
         2536.748     1.510118E-8
          2539.01     1.172437E-8
         2541.277     1.018099E-8
         2543.545     1.007079E-8
         2545.813     9.960096E-9
         2548.084     9.848838E-9
         2550.358     9.998052E-9
         2552.635     1.154802E-8
         2554.911     1.310284E-8
         2557.191     1.466482E-8
         2559.471     1.623092E-8
         2561.755     1.642222E-8
         2564.042     1.619628E-8
         2566.329     1.596936E-8
         2568.619     1.574124E-8
         2570.908     2.584833E-8
         2573.205     5.179945E-8
           2575.5     7.781674E-8
         2577.797     1.039412E-7
         2580.097     1.280172E-7
         2582.399     1.031473E-7
         2584.704     7.815824E-8
          2587.01     5.307167E-8
         2589.318     2.789592E-8
         2591.629     2.053627E-8
          2593.94     2.067443E-8
         2596.254     2.081287E-8
         2598.573     2.095178E-8
         2600.889     3.456471E-8
          2603.21     6.996726E-8
         2605.532     1.054890E-7
         2607.856     1.411555E-7
         2610.185     1.718025E-7
         2612.512     1.420883E-7
         2614.843     1.122169E-7
         2617.177     8.221985E-8
          2619.51     5.213547E-8
         2621.849     8.091289E-8
         2624.188     1.254432E-7
         2626.528     1.701532E-7
         2628.873     2.150748E-7
         2631.217     2.151857E-7
         2633.566     1.735169E-7
         2635.916     1.316748E-7
         2638.267     8.968176E-8
          2640.62     5.574381E-8
         2642.977     4.470960E-8
         2645.334     3.363528E-8
         2647.695     2.250842E-8
         2650.057     1.173824E-8
         2652.422     1.702637E-8
         2654.788     2.233275E-8
         2657.157     2.766440E-8
         2659.526     3.301132E-8
         2661.899     2.964585E-8
         2664.275     2.407844E-8
         2666.652     1.849077E-8
         2669.031     1.287663E-8
         2671.412     1.231245E-8
         2673.796     1.523376E-8
         2676.181     1.816495E-8
          2678.57     2.110985E-8
          2680.96     3.023632E-8
          2683.35     4.859246E-8
         2685.746     6.705645E-8
          2688.14     8.556208E-8
          2690.54     9.556770E-8
         2692.941     7.590684E-8
         2695.343     5.617372E-8
         2697.748     3.634863E-8
         2700.153     1.789950E-8
         2702.563     2.051812E-8
         2704.975     2.315495E-8
         2707.387     2.580869E-8
         2709.804     2.848288E-8
         2712.222     2.482535E-8
         2714.642     2.058124E-8
         2717.063     1.630675E-8
         2719.486     1.200095E-8
         2721.915     1.111221E-8
         2724.343     1.114689E-8
         2726.772     1.118160E-8
         2729.205     1.121635E-8
          2731.64     2.365931E-8
         2734.078     4.223139E-8
         2736.517     6.092367E-8
         2738.958     7.974578E-8
         2741.402     7.847810E-8
         2743.849     6.210081E-8
         2746.296     4.561768E-8
         2748.747     2.900707E-8
         2751.198     1.941113E-8
         2753.653     1.722266E-8
         2756.111     1.502893E-8
         2758.569     1.283125E-8
         2761.031     1.155384E-8
         2763.495     1.156235E-8
         2765.958     1.157086E-8
         2768.427     1.157939E-8
         2770.898     1.168333E-8
         2773.369     1.195472E-8
         2775.844     1.222690E-8
          2778.32     1.249954E-8
         2780.799     2.357648E-8
          2783.28     5.745569E-8
         2785.764     9.141660E-8
         2788.249     1.254326E-7
         2790.736     1.394613E-7
         2793.227     1.056874E-7
          2795.72     7.183669E-8
         2798.213     3.792910E-8
         2800.709     2.053171E-8
         2803.209     4.495913E-8
         2805.709     6.942670E-8
         2808.213     9.396562E-8
         2810.718     1.115805E-7
         2813.226     1.118767E-7
         2815.736     1.121732E-7
         2818.247     1.124703E-7
         2820.764     1.213570E-7
         2823.278     1.499474E-7
         2825.798     1.786349E-7
          2828.32     2.073836E-7
         2830.843     2.118230E-7
         2833.369     1.676286E-7
         2835.898     1.233367E-7
         2838.426     7.900703E-8
         2840.959     4.758803E-8
         2843.495     3.757601E-8
         2846.031     2.754925E-8
         2848.571     1.749419E-8
         2851.112     1.183581E-8
         2853.655     1.184268E-8
         2856.202     1.184956E-8
         2858.751     1.185644E-8
         2861.301     1.238629E-8
         2863.853     1.342025E-8
         2866.407     1.445636E-8
         2868.965     1.549522E-8
         2871.526     1.821703E-8
         2874.087     2.208292E-8
         2876.652     2.595924E-8
         2879.218     2.984050E-8
         2881.788     2.761818E-8
         2884.358     2.271571E-8
         2886.931     1.780332E-8
         2889.507     1.287867E-8
         2892.084     1.661743E-8
         2894.666     2.241963E-8
         2897.248     2.822997E-8
         2899.832     3.405068E-8
         2902.421     5.903800E-8
          2905.01     8.527898E-8
         2907.601     1.114760E-7
         2910.198     1.334911E-7
          2912.79     1.049800E-7
         2915.392     7.644800E-8
         2917.992     4.800264E-8
         2920.594     2.618885E-8
         2923.203     2.662891E-8
         2925.807     2.706697E-8
          2928.42     2.750512E-8
         2931.033     2.610269E-8
         2933.646     2.189580E-8
         2936.266     1.768919E-8
         2938.885     1.349585E-8
         2941.506     2.829393E-8
         2944.131     5.712993E-8
         2946.757     8.589188E-8
         2949.387     1.146142E-7
         2952.018     1.008755E-7
         2954.653     7.428667E-8
          2957.29     4.775057E-8
         2959.926     2.129932E-8
         2962.567     2.595591E-8
          2965.21     3.149795E-8
         2967.856     3.703105E-8
         2970.505     3.997555E-8
         2973.155     3.198668E-8
         2975.808     2.400919E-8
         2978.461     1.605859E-8
         2981.121     1.258891E-8
          2983.78     1.527156E-8
         2986.441     1.794832E-8
         2989.104     2.061891E-8
         2991.772     2.322998E-8
         2994.442     2.580665E-8
         2997.113     2.837606E-8
         2999.788     3.094120E-8
         3002.464     4.135608E-8
         3005.142     5.242171E-8
         3007.826     6.347585E-8
         3010.507     6.929754E-8
         3013.194     5.285496E-8
         3015.883     3.645004E-8
         3018.573     2.009337E-8
         3021.267     1.139604E-8
          3023.96     1.131085E-8
          3026.66     1.122562E-8
          3029.36     1.114061E-8
         3032.062     1.181398E-8
          3034.77     1.272189E-8
         3037.475     1.362585E-8
         3040.186     1.440152E-8
         3042.897     1.345298E-8
         3045.612     1.250660E-8
         3048.332     1.156131E-8
         3051.051     1.282089E-8
         3053.772     1.757011E-8
         3056.497     2.231048E-8
         3059.222     2.703219E-8
         3061.954     2.493467E-8
         3064.685     2.013594E-8
         3067.418     1.534911E-8
         3070.156     1.094682E-8
         3072.896     1.275081E-8
         3075.637     1.454897E-8
          3078.38     1.634209E-8
         3081.126     1.693540E-8
         3083.877     1.580800E-8
         3086.628     1.468483E-8
         3089.381     1.356470E-8
         3092.137     2.054410E-8
         3094.895     2.984709E-8
         3097.659     3.913553E-8
         3100.422     4.789377E-8
         3103.187     5.391786E-8
         3105.955     5.996515E-8
         3108.729     6.604318E-8
         3111.501     6.645300E-8
