#  Table pcf450wsys.tab  Mon 12:21:12 02-Jun-97

#      WAVELENGTH      THROUGHPUT
#       angstroms                

            1860.     4.303069E-8
         1861.655     3.845513E-8
         1863.309     3.383810E-8
         1864.968     2.916636E-8
         1866.627     2.445027E-8
         1868.287     1.969034E-8
         1869.948     1.488323E-8
         1871.612     3.030267E-8
         1873.277     4.652807E-8
         1874.943     6.290165E-8
         1876.611     7.944580E-8
          1878.28     9.614080E-8
         1879.951     1.129640E-7
         1881.624     1.422330E-7
         1883.297     1.721043E-7
         1884.973     2.022461E-7
         1886.648     2.326019E-7
         1888.326     2.632501E-7
         1890.007     2.940777E-7
         1891.687     3.043425E-7
          1893.37     3.147000E-7
         1895.055     3.251379E-7
          1896.74     3.356504E-7
         1898.427     3.462507E-7
         1900.116     3.539832E-7
         1901.806     3.217823E-7
         1903.497     2.892947E-7
         1905.191     2.564982E-7
         1906.885     2.234317E-7
         1908.581     1.900541E-7
          1910.28     1.581993E-7
         1911.978     1.353264E-7
         1913.679     1.122370E-7
         1915.381     8.895843E-8
         1917.085     6.546173E-8
         1918.791     4.176115E-8
         1920.498     2.446432E-8
         1922.205     2.313879E-8
         1923.915     2.179933E-8
         1925.628     2.044683E-8
         1927.339     1.908464E-8
         1929.054     1.770846E-8
         1930.769     2.415486E-8
         1932.487     4.034944E-8
         1934.207     5.668436E-8
         1935.926     7.314837E-8
         1937.649     8.976292E-8
         1939.372     1.065096E-7
         1941.096     1.500656E-7
         1942.824     2.094229E-7
         1944.552     2.692152E-7
         1946.281     3.295152E-7
         1948.013     3.903674E-7
         1949.746     4.517354E-7
          1951.48     4.504609E-7
         1953.216     4.382661E-7
         1954.954     4.259530E-7
         1956.691     4.135375E-7
         1958.432     4.009875E-7
         1960.176     3.891071E-7
         1961.917     3.842739E-7
         1963.663     3.793820E-7
          1965.41     3.744372E-7
         1967.158     3.694430E-7
         1968.907     3.643952E-7
          1970.66     3.580703E-7
         1972.412     3.496635E-7
         1974.167     3.411691E-7
         1975.922     3.326034E-7
          1977.68     3.239440E-7
          1979.44     3.151959E-7
           1981.2     3.132175E-7
         1982.962     3.144187E-7
         1984.726     3.156223E-7
         1986.491     3.168268E-7
         1988.259     3.180338E-7
         1990.028     3.193499E-7
         1991.797     3.274414E-7
         1993.568     3.355927E-7
         1995.342     3.438099E-7
         1997.117     3.520878E-7
         1998.893     3.604206E-7
         2000.672     3.556225E-7
         2002.451     3.289182E-7
         2004.232     3.019206E-7
         2006.016     2.746482E-7
         2007.799     2.471150E-7
         2009.586     2.192837E-7
         2011.373     2.009635E-7
         2013.161     1.854212E-7
         2014.953     1.696997E-7
         2016.745     1.538391E-7
         2018.538     1.378170E-7
         2020.334     1.257958E-7
         2022.132     1.319828E-7
          2023.93     1.382220E-7
         2025.731     1.445216E-7
         2027.532     1.508739E-7
         2029.335     1.572832E-7
         2031.141     1.576661E-7
         2032.949     1.544775E-7
         2034.756     1.512578E-7
         2036.566     1.480023E-7
         2038.378     1.447092E-7
          2040.19     1.397213E-7
         2042.006     1.204372E-7
         2043.821     1.009795E-7
          2045.64     8.132099E-8
          2047.46     6.147386E-8
         2049.279     4.146148E-8
         2051.104     3.110211E-8
         2052.929     2.713183E-8
         2054.753     2.312824E-8
         2056.581     1.908206E-8
         2058.411     1.499737E-8
         2060.241     1.253234E-8
         2062.074     2.099839E-8
         2063.909     2.954202E-8
         2065.744     3.815786E-8
         2067.581     4.685197E-8
         2069.422     5.563520E-8
         2071.262     7.926874E-8
         2073.104     1.099161E-7
         2074.948     1.408540E-7
         2076.793     1.720469E-7
         2078.642     2.035540E-7
         2080.491     2.300187E-7
         2082.341     2.420236E-7
         2084.193     2.541366E-7
         2086.047     2.663420E-7
         2087.902     2.786483E-7
          2089.76     2.910707E-7
         2091.619     2.797896E-7
         2093.479     2.648687E-7
         2095.341     2.498056E-7
         2097.204     2.346157E-7
          2099.07     2.192822E-7
         2100.938     2.049744E-7
         2102.806     1.917040E-7
         2104.677     1.783100E-7
         2106.548     1.648111E-7
         2108.423     1.511875E-7
         2110.299     1.397206E-7
         2112.175     1.402192E-7
         2114.053     1.407190E-7
         2115.934     1.412202E-7
         2117.817     1.417227E-7
           2119.7     1.422259E-7
         2121.586     1.488872E-7
         2123.474     1.567672E-7
         2125.361     1.646949E-7
         2127.252     1.726912E-7
         2129.144     1.807451E-7
         2131.038     1.833625E-7
         2132.934     1.814486E-7
          2134.83     1.795184E-7
          2136.73     1.775699E-7
         2138.631     1.756212E-7
         2140.534     1.743968E-7
         2142.437     1.749825E-7
         2144.342     1.755696E-7
         2146.249     1.761583E-7
          2148.16     1.767493E-7
         2150.071     1.769538E-7
         2151.981     1.670546E-7
         2153.896     1.570684E-7
         2155.813     1.470077E-7
         2157.729     1.368800E-7
         2159.649     1.266693E-7
         2161.571     1.207328E-7
         2163.493     1.157306E-7
         2165.417     1.106928E-7
         2167.344     1.056134E-7
         2169.272     1.005040E-7
         2171.201     9.534510E-8
         2173.133     9.014056E-8
         2175.065     8.490597E-8
            2177.     7.963322E-8
         2178.936     7.432955E-8
         2180.875     6.898093E-8
         2182.815     6.359083E-8
         2184.755     5.817532E-8
           2186.7     5.271720E-8
         2188.645     4.723001E-8
         2190.592     4.427839E-8
         2192.539     4.720277E-8
          2194.49     5.014430E-8
         2196.441     5.309974E-8
         2198.396     5.607247E-8
         2200.352     5.911969E-8
         2202.309     6.247053E-8
         2204.267     6.586660E-8
         2206.229     6.931752E-8
         2208.191     7.281328E-8
         2210.156     7.588671E-8
         2212.121     7.343885E-8
         2214.088     7.094479E-8
         2216.059     6.840145E-8
         2218.029     6.581487E-8
         2220.002     6.317866E-8
         2221.977     5.734627E-8
         2223.953     5.142302E-8
         2225.931     4.540184E-8
         2227.912     3.928590E-8
         2229.894     3.307476E-8
         2231.876     2.986178E-8
         2233.862     2.677133E-8
         2235.849     2.363378E-8
         2237.837     2.045087E-8
         2239.828     1.721805E-8
          2241.82     2.634119E-8
         2243.814     3.677614E-8
         2245.811     4.735541E-8
         2247.809     5.807709E-8
         2249.808     6.893777E-8
         2251.808     7.675063E-8
         2253.812     8.432733E-8
         2255.817     9.199890E-8
         2257.823     9.976287E-8
         2259.831     1.076243E-7
         2261.841     1.022065E-7
         2263.854     9.547328E-8
         2265.865     8.865531E-8
         2267.883     8.173060E-8
         2269.901     7.471620E-8
         2271.918     6.760809E-8
         2273.939     6.039726E-8
         2275.962     5.309316E-8
         2277.988     4.569453E-8
         2280.013     3.823159E-8
         2282.042     3.454400E-8
         2284.071     3.081216E-8
         2286.103     2.703094E-8
         2288.136     2.320469E-8
         2290.172     1.966695E-8
         2292.209     1.977368E-8
         2294.248     1.988055E-8
         2296.288     1.998858E-8
         2298.331     2.010275E-8
         2300.376     2.021698E-8
         2302.421     2.033044E-8
          2304.47     2.044426E-8
         2306.519     2.055829E-8
          2308.57     2.067260E-8
         2310.625     2.078687E-8
         2312.681     2.090030E-8
         2314.736     2.101385E-8
         2316.796     2.112782E-8
         2318.857     2.124206E-8
         2320.919     2.331833E-8
         2322.983     2.787258E-8
         2325.049     3.248037E-8
         2327.118     3.714035E-8
         2329.187     4.184830E-8
          2331.26     4.660961E-8
         2333.334     5.142083E-8
         2335.409     5.628045E-8
         2337.485     6.119215E-8
         2339.565     6.615902E-8
         2341.648     7.117691E-8
         2343.729     7.623706E-8
         2345.814     8.135484E-8
         2347.901     8.652516E-8
         2349.989     9.174518E-8
          2352.08     1.018084E-7
         2354.171     1.119929E-7
         2356.266     1.222887E-7
         2358.361     1.326820E-7
         2360.458     1.410222E-7
          2362.56     1.416895E-7
         2364.661     1.423573E-7
         2366.764     1.430269E-7
         2368.869     1.436975E-7
         2370.977     1.443641E-7
         2373.085     1.450250E-7
         2375.196     1.456876E-7
          2377.31     1.463516E-7
         2379.422     1.470162E-7
         2381.539     1.514625E-7
          2383.66     1.573774E-7
         2385.778     1.633332E-7
         2387.901     1.693494E-7
         2390.024     1.753542E-7
          2392.15     1.761088E-7
         2394.279     1.768649E-7
         2396.409     1.776223E-7
          2398.54     1.783808E-7
         2400.673     1.756930E-7
         2402.809     1.654458E-7
         2404.947     1.550988E-7
         2407.086     1.446529E-7
         2409.225     1.341185E-7
         2411.369     1.270408E-7
         2413.514     1.219255E-7
         2415.662     1.167608E-7
          2417.81     1.115500E-7
         2419.961     1.062864E-7
         2422.113     8.970696E-8
         2424.267     7.277068E-8
         2426.425     5.566511E-8
         2428.584     3.841857E-8
         2430.742     2.505849E-8
         2432.905     1.927816E-8
         2435.069     1.344737E-8
         2437.235     7.570589E-9
         2439.403     1.640341E-9
         2441.572              0.
         2443.745              0.
         2445.917              0.
         2448.094              0.
         2450.272              0.
         2452.451              0.
         2454.631              0.
         2456.815              0.
            2459.              0.
         2461.188     3.385527E-9
         2463.378     9.662037E-9
         2465.569     1.598807E-8
          2467.76     2.235738E-8
         2469.958     2.878866E-8
         2472.154     3.526182E-8
         2474.353     4.178914E-8
         2476.553     4.836355E-8
         2478.756     5.498886E-8
         2480.961     6.449559E-8
         2483.167     7.774461E-8
         2485.378     9.111344E-8
         2487.588     1.045670E-7
         2489.801     1.181308E-7
         2492.015     1.197285E-7
         2494.231     1.201398E-7
         2496.451     1.205523E-7
          2498.67     1.209648E-7
         2500.893     1.213785E-7
         2503.118     1.217929E-7
         2505.345     1.222081E-7
         2507.573     1.226238E-7
         2509.803     1.230401E-7
         2512.036     1.297433E-7
          2514.27     1.371023E-7
         2516.507     1.445201E-7
         2518.746     1.519919E-7
         2520.985     1.595147E-7
         2523.228     1.670968E-7
         2525.472     1.747296E-7
         2527.719     1.824223E-7
         2529.967     1.901653E-7
         2532.218     1.838612E-7
         2534.471     1.772923E-7
         2536.723     1.706773E-7
          2538.98     1.637372E-7
          2541.24     1.567264E-7
           2543.5     1.496961E-7
         2545.762     1.426354E-7
         2548.027     1.355405E-7
         2550.292     1.293670E-7
         2552.562     1.295682E-7
         2554.833     1.297686E-7
         2557.106     1.299683E-7
          2559.38     1.301670E-7
         2561.655     1.249730E-7
         2563.935     1.177258E-7
         2566.216     1.104485E-7
         2568.498     1.031461E-7
         2570.781     9.837724E-8
         2573.069     9.853003E-8
         2575.358     9.868220E-8
         2577.648     9.883367E-8
         2579.942     9.898464E-8
         2582.236     9.913966E-8
         2584.533     9.929429E-8
         2586.833     9.944827E-8
         2589.135     9.960167E-8
         2591.435     9.975724E-8
         2593.741     9.991415E-8
         2596.049     1.000705E-7
         2598.357     1.002260E-7
         2600.669     1.003825E-7
         2602.981     1.005421E-7
         2605.297     1.007011E-7
         2607.614     1.008594E-7
         2609.936     1.010172E-7
         2612.256     9.357004E-8
         2614.579     8.587365E-8
         2616.906     7.813934E-8
         2619.232     7.037773E-8
         2621.564     6.788578E-8
         2623.894     6.799547E-8
         2626.229     6.810484E-8
         2628.565     6.821374E-8
         2630.904     6.832363E-8
         2633.243     6.843526E-8
         2635.585     6.854642E-8
          2637.93     6.865719E-8
         2640.275     6.971460E-8
         2642.625     7.791890E-8
         2644.976     8.615658E-8
         2647.328     9.442147E-8
         2649.683     1.027246E-7
         2652.039     1.039913E-7
         2654.399     1.041613E-7
         2656.759     1.043304E-7
         2659.123     1.044989E-7
         2661.489     9.947504E-8
         2663.854     9.137177E-8
         2666.224     8.322402E-8
         2668.598     7.503604E-8
         2670.971     6.682480E-8
         2673.346     5.857948E-8
         2675.724     5.029388E-8
         2678.104     4.197920E-8
         2680.486     3.534360E-8
          2682.87     3.540102E-8
         2685.258     3.545821E-8
         2687.645     3.551505E-8
         2690.036     3.569937E-8
         2692.429     4.428387E-8
         2694.823     5.289878E-8
         2697.221     6.155274E-8
         2699.619     7.023502E-8
         2702.021     7.906179E-8
         2704.424     8.796170E-8
         2706.829     9.692383E-8
         2709.239     1.059584E-7
         2711.648     1.030672E-7
         2714.059     9.459603E-8
         2716.474     8.605733E-8
         2718.891     7.745601E-8
         2721.308     7.361358E-8
         2723.729     7.384283E-8
         2726.153     7.407232E-8
         2728.577     7.430193E-8
         2731.003     7.453205E-8
         2733.433     7.476294E-8
         2735.865     7.499409E-8
         2738.298     7.522534E-8
         2740.733     7.822140E-8
         2743.171     8.769224E-8
         2745.612     9.722758E-8
         2748.055     1.068286E-7
         2750.499     1.164346E-7
         2752.946     1.258704E-7
         2755.394     1.353238E-7
         2757.845     1.448055E-7
         2760.299     1.531642E-7
         2762.752     1.532765E-7
          2765.21     1.533891E-7
          2767.67     1.535018E-7
         2770.131     1.536146E-7
         2772.596     1.537265E-7
         2775.063     1.538386E-7
         2777.531     1.539508E-7
            2780.     1.540621E-7
         2782.475     1.446328E-7
         2784.949     1.351919E-7
         2787.427     1.257243E-7
         2789.906     1.162403E-7
         2792.386     1.067321E-7
         2794.873     9.718998E-8
         2797.356     8.764395E-8
         2799.845     7.806400E-8
         2802.336     6.846113E-8
          2804.83     5.883767E-8
         2807.324     4.919740E-8
         2809.822     3.952992E-8
          2812.32     3.886214E-8
         2814.821     3.888743E-8
         2817.325     3.891276E-8
         2819.833     3.893814E-8
         2822.339     2.984885E-8
          2824.85     2.007706E-8
         2827.362     1.029009E-8
         2829.878    4.774696E-10
         2832.396     9.357883E-9
         2834.914     1.920726E-8
         2837.437     2.908311E-8
         2839.959     3.897399E-8
         2842.485     5.861490E-8
         2845.015     7.847794E-8
         2847.545     9.835858E-8
         2850.077     1.173720E-7
         2852.613     1.074872E-7
         2855.151     9.758226E-8
          2857.69     8.766297E-8
         2860.233     7.771671E-8
         2862.777     6.775019E-8
         2865.323     5.776860E-8
         2867.871     4.776711E-8
         2870.423     4.106934E-8
         2872.976     5.115956E-8
         2875.531     6.126449E-8
         2878.088     7.138901E-8
         2880.649     8.410132E-8
         2883.212     1.043989E-7
         2885.775     1.247240E-7
         2888.343     1.451016E-7
         2890.913     1.619047E-7
         2893.483     1.721652E-7
         2896.058     1.824518E-7
         2898.633     1.927518E-7
          2901.21     1.933075E-7
         2903.792     1.828426E-7
         2906.375     1.723959E-7
         2908.961     1.619657E-7
         2911.546     1.576589E-7
         2914.137     1.574492E-7
          2916.73     1.572390E-7
         2919.323     1.570285E-7
         2921.922     1.643525E-7
         2924.519     1.742955E-7
         2927.121     1.842310E-7
         2929.725     1.941468E-7
         2932.332     1.949479E-7
         2934.941     1.946757E-7
         2937.549     1.944032E-7
         2940.163     1.941300E-7
         2942.779     1.938563E-7
         2945.397     1.935821E-7
         2948.016     1.933074E-7
         2950.637     1.881092E-7
         2953.263     1.675934E-7
         2955.889     1.471323E-7
         2958.519     1.266998E-7
         2961.153     1.151437E-7
         2963.784     1.149747E-7
         2966.421     1.148050E-7
         2969.061     1.146351E-7
         2971.701     1.209529E-7
         2974.343     1.308378E-7
          2976.99     1.407077E-7
         2979.638     1.505551E-7
         2982.286     1.343575E-7
         2984.939     1.140571E-7
         2987.597     9.378666E-8
         2990.253     7.454220E-8
         2992.914     6.439831E-8
         2995.575     5.428273E-8
         2998.239     4.418999E-8
         3000.907     3.751432E-8
         3003.575     3.745497E-8
         3006.249     3.739544E-8
         3008.921     3.733590E-8
         3011.598     4.323164E-8
         3014.277     5.313509E-8
         3016.958     6.300814E-8
         3019.642     7.286419E-8
         3022.327     6.545408E-8
         3025.016     5.540443E-8
         3027.706     4.538367E-8
         3030.398     3.685390E-8
         3033.096     3.679261E-8
         3035.793     3.673129E-8
         3038.494     3.666980E-8
         3041.198     3.660821E-8
           3043.9     3.654657E-8
         3046.608     3.648474E-8
         3049.319     3.642279E-8
         3052.032     4.374979E-8
         3054.748     5.353078E-8
         3057.462     6.327511E-8
         3060.183     7.300632E-8
         3062.905     8.271108E-8
         3065.629     9.238495E-8
         3068.356     1.020382E-7
         3071.085     1.038666E-7
         3073.817     9.388501E-8
         3076.551     8.393606E-8
         3079.288     7.400653E-8
         3082.028     7.133426E-8
         3084.768     7.120629E-8
         3087.513     7.107800E-8
         3090.258     7.003411E-8
         3093.006     6.017616E-8
         3095.758     5.033953E-8
         3098.512     4.052964E-8
         3101.269     3.527066E-8
         3104.025     3.532326E-8
         3106.787     3.537602E-8
         3109.551     3.542884E-8
         3112.316     3.548173E-8
         3115.087     3.553477E-8
         3117.855     3.558779E-8
         3120.631     3.564100E-8
         3123.406     3.569424E-8
