#  Table pcf606wsys.tab  Mon 12:21:17 02-Jun-97

#      WAVELENGTH      THROUGHPUT
#       angstroms                

            1850.     7.441482E-7
         1851.651     7.861629E-7
         1853.301     8.285245E-7
         1854.956     8.713577E-7
         1856.611     9.145256E-7
         1858.267     9.580900E-7
         1859.925     1.002079E-6
         1861.584     8.970694E-7
         1863.246     7.838465E-7
         1864.909     6.694743E-7
         1866.572     5.540319E-7
         1868.237     4.374293E-7
         1869.904     3.196000E-7
         1871.573     2.690962E-7
         1873.242     2.223017E-7
         1874.913     1.750398E-7
         1876.585     1.273047E-7
          1878.26     7.905874E-8
         1879.937     3.032594E-8
         1881.613     2.854655E-8
         1883.292     2.861983E-8
         1884.973     2.869301E-8
         1886.654     2.876601E-8
         1888.338     2.883893E-8
         1890.023     2.950451E-8
         1891.709     7.329458E-8
         1893.396     1.174630E-7
         1895.086     1.620336E-7
         1896.775     2.069269E-7
         1898.469     2.522839E-7
         1900.163     3.019664E-7
         1901.857     3.892951E-7
         1903.555     4.774831E-7
         1905.254     5.664259E-7
         1906.953     6.560616E-7
         1908.655     7.465085E-7
         1910.357     8.028757E-7
         1912.061     7.280751E-7
         1913.768     6.525621E-7
         1915.476     5.763718E-7
         1917.184     4.995516E-7
         1918.894     4.220502E-7
         1920.606     3.642109E-7
          1922.32     3.431591E-7
         1924.035     3.219152E-7
         1925.752     3.004891E-7
          1927.47     2.788574E-7
         1929.189     2.570424E-7
          1930.91     2.611613E-7
         1932.634     2.887087E-7
         1934.358     3.164871E-7
         1936.084     3.444795E-7
         1937.811     3.727082E-7
          1939.54     4.011882E-7
          1941.27     4.194693E-7
         1943.003     4.341157E-7
         1944.737     4.488778E-7
          1946.47     4.637372E-7
         1948.207     4.787306E-7
         1949.947     4.938495E-7
         1951.685     4.800602E-7
         1953.427     4.652041E-7
         1955.171     4.502066E-7
         1956.913     4.350850E-7
          1958.66     4.198019E-7
         1960.408     4.014234E-7
         1962.157     3.731589E-7
         1963.908     3.446204E-7
         1965.658     3.158611E-7
         1967.413     2.868098E-7
         1969.169     2.574978E-7
         1970.925     2.499544E-7
         1972.684     2.622187E-7
         1974.444     2.745741E-7
         1976.205     2.870287E-7
         1977.969     2.995977E-7
         1979.734     3.122516E-7
           1981.5     3.225690E-7
         1983.268     3.325381E-7
         1985.037     3.425781E-7
         1986.809     3.527007E-7
         1988.581     3.628939E-7
         1990.355     3.624675E-7
         1992.131     3.191164E-7
         1993.908     2.753858E-7
         1995.688     2.312196E-7
         1997.467     1.867535E-7
          1999.25     1.418492E-7
         2001.034     1.187264E-7
         2002.818     1.115576E-7
         2004.606     1.043007E-7
         2006.396     9.697258E-8
         2008.184     8.957847E-8
         2009.976     8.209936E-8
         2011.769     8.816386E-8
         2013.565     9.447211E-8
         2015.362     1.008400E-7
         2017.158     1.072594E-7
         2018.958     1.137465E-7
          2020.76     1.153364E-7
         2022.563     1.101154E-7
         2024.368     1.048365E-7
         2026.173     9.950644E-8
         2027.982     9.411792E-8
         2029.791     8.867742E-8
         2031.602     9.715211E-8
         2033.414     1.075356E-7
         2035.228     1.180160E-7
         2037.044     1.286001E-7
         2038.861     1.392756E-7
         2040.681     1.493599E-7
         2042.502     1.583668E-7
         2044.324     1.674500E-7
         2046.147     1.766139E-7
         2047.974     1.858658E-7
           2049.8     1.951943E-7
          2051.63     1.952422E-7
         2053.461     1.941309E-7
         2055.291     1.930050E-7
         2057.125     1.918618E-7
         2058.961     1.907024E-7
         2060.798     1.849491E-7
         2062.637     1.731394E-7
         2064.477     1.612237E-7
         2066.318     1.491951E-7
         2068.164     1.370370E-7
         2070.007     1.247912E-7
         2071.855     1.137381E-7
         2073.704     1.025833E-7
         2075.553     9.133214E-8
         2077.405     7.997836E-8
         2079.259     6.851092E-8
         2081.113     6.321226E-8
         2082.971     6.205538E-8
         2084.829     6.088750E-8
         2086.688     5.970795E-8
          2088.55     5.851576E-8
         2090.414     5.723517E-8
         2092.279     5.567406E-8
         2094.145     5.409864E-8
         2096.014     5.250715E-8
         2097.885     5.090100E-8
         2099.756     4.928094E-8
          2101.63     5.836809E-8
         2103.503     6.913099E-8
         2105.381     7.999355E-8
          2107.26     9.094649E-8
         2109.139     1.019815E-7
         2111.022     1.095593E-7
         2112.906     1.141909E-7
         2114.789     1.188516E-7
         2116.677     1.235535E-7
         2118.564     1.282878E-7
         2120.455     1.293520E-7
         2122.348     1.186791E-7
         2124.241     1.079296E-7
         2126.135     9.709338E-8
         2128.033     8.616583E-8
         2129.932     7.515075E-8
         2131.832     6.656948E-8
         2133.734     5.801523E-8
         2135.637     4.939760E-8
         2137.544     4.070405E-8
          2139.45     3.196379E-8
         2141.359     3.003384E-8
          2143.27     3.088265E-8
         2145.182     3.173698E-8
         2147.096     3.259777E-8
         2149.011     3.346402E-8
         2150.929     3.761806E-8
         2152.848     4.530264E-8
         2154.768     5.304221E-8
         2156.692     6.084700E-8
         2158.615     6.869244E-8
         2160.541     7.270983E-8
         2162.469     6.674731E-8
         2164.397     6.075078E-8
          2166.33     5.470103E-8
         2168.263     4.861230E-8
         2170.196     4.272989E-8
         2172.133     3.893633E-8
          2174.07     3.512109E-8
         2176.011     3.127829E-8
         2177.953     2.741070E-8
         2179.895     2.352118E-8
          2181.84     2.137267E-8
         2183.787     1.931089E-8
         2185.735     1.723783E-8
         2187.686     1.515138E-8
         2189.637     1.305384E-8
          2191.59     1.243519E-8
         2193.546     1.215475E-8
         2195.503     1.187275E-8
         2197.462     1.158930E-8
         2199.423     1.130402E-8
         2201.385     1.570726E-8
         2203.348     2.215318E-8
         2205.315     2.870792E-8
         2207.283     3.536728E-8
         2209.252     4.212756E-8
         2211.222     5.377940E-8
         2213.196     6.857741E-8
          2215.17     8.359194E-8
         2217.147     9.884646E-8
         2219.125     1.143311E-7
         2221.104     1.228108E-7
         2223.086     1.256489E-7
         2225.071     1.285207E-7
         2227.055     1.314192E-7
         2229.042     1.343535E-7
         2231.031     1.332586E-7
         2233.021     1.283339E-7
         2235.015     1.233207E-7
         2237.008     1.182308E-7
         2239.003     1.130569E-7
         2241.002     1.070260E-7
         2242.999     1.001381E-7
         2245.002     9.313310E-8
         2247.005     8.603104E-8
         2249.009     7.882281E-8
         2251.016     7.100859E-8
         2253.024     6.259937E-8
         2255.033     5.407261E-8
         2257.046     4.542144E-8
         2259.061     3.665149E-8
         2261.075     3.139503E-8
         2263.092     2.925816E-8
         2265.112     2.709013E-8
         2267.134     2.489209E-8
         2269.156     2.266553E-8
         2271.181     2.431547E-8
         2273.207     2.879409E-8
         2275.234     3.332741E-8
         2277.266     3.792124E-8
         2279.296     4.256085E-8
          2281.33     4.571930E-8
         2283.366     4.809155E-8
         2285.402     5.048717E-8
         2287.441     5.291202E-8
         2289.483     5.536307E-8
         2291.525     5.048046E-8
          2293.57     4.302157E-8
         2295.615     3.548207E-8
         2297.663     2.785034E-8
         2299.715     2.011971E-8
         2301.765     1.688057E-8
          2303.82     1.433975E-8
         2305.876     1.176742E-8
         2307.932     9.164979E-9
         2309.992     6.528884E-9
         2312.051     6.536738E-9
         2314.116     6.554624E-9
          2316.18     6.572365E-9
         2318.246     6.589979E-9
         2320.315     6.610174E-9
         2322.385     6.645360E-9
         2324.457     6.680652E-9
         2326.531     6.716002E-9
         2328.606     6.751436E-9
         2330.685     6.786834E-9
         2332.764     6.821931E-9
         2334.845     6.857114E-9
         2336.927     6.892375E-9
         2339.012     6.927717E-9
         2341.101     7.046542E-9
         2343.188     7.241390E-9
         2345.279     7.438091E-9
         2347.372     7.636744E-9
         2349.467     7.837220E-9
         2351.562     9.862325E-9
         2353.661     1.253643E-8
         2355.759     1.523488E-8
         2357.862     1.796502E-8
         2359.966     2.072321E-8
         2362.071     2.379991E-8
         2364.179     2.691443E-8
         2366.288     3.005813E-8
         2368.398     3.323330E-8
         2370.512     3.719788E-8
         2372.628     4.357974E-8
         2374.744     5.002022E-8
         2376.863     5.652771E-8
         2378.983     6.309499E-8
         2381.105     7.318876E-8
          2383.23     8.659199E-8
         2385.357     1.001226E-7
         2387.485     1.137750E-7
         2389.615     1.275555E-7
         2391.747     1.302342E-7
         2393.881     1.304412E-7
         2396.017     1.306460E-7
         2398.154     1.308484E-7
         2400.293     1.304287E-7
         2402.435     1.260761E-7
          2404.58     1.216789E-7
         2406.724     1.172404E-7
         2408.872     1.127548E-7
         2411.022     1.081365E-7
         2413.171     1.033817E-7
         2415.326     9.857237E-8
         2417.479     9.372633E-8
         2419.637     8.882751E-8
         2421.796     7.934129E-8
         2423.957     6.885325E-8
          2426.12     5.826551E-8
         2428.284     4.759086E-8
         2430.451     3.856012E-8
         2432.619     3.612724E-8
         2434.789     3.367290E-8
         2436.962     3.119509E-8
         2439.136     2.869565E-8
         2441.312     2.752880E-8
          2443.49     2.724620E-8
          2445.67     2.696043E-8
         2447.853     2.667156E-8
         2450.036     2.633144E-8
         2452.222     2.311508E-8
         2454.409     1.987181E-8
           2456.6     1.659932E-8
         2458.792     1.330004E-8
         2460.985     1.122847E-8
          2463.18     1.068336E-8
         2465.379     1.013325E-8
         2467.579     9.578559E-9
         2469.778     9.019881E-9
         2471.983     8.991745E-9
          2474.19     9.023396E-9
         2476.396     9.055048E-9
         2478.606     9.086793E-9
         2480.817     9.118515E-9
         2483.029     9.150192E-9
         2485.247     9.181967E-9
         2487.462     9.213739E-9
         2489.682     9.245604E-9
         2491.904     1.060342E-8
         2494.125     1.219178E-8
         2496.353     1.379524E-8
         2498.579     1.540894E-8
         2500.808     1.865808E-8
          2503.04     2.480098E-8
         2505.272     3.098685E-8
         2507.509     3.722463E-8
         2509.745     4.350496E-8
         2511.985     4.647815E-8
         2514.225     4.903804E-8
         2516.468     5.161694E-8
         2518.714     5.421608E-8
         2520.962     5.498176E-8
          2523.21     5.326566E-8
         2525.462     5.153417E-8
         2527.715     4.978952E-8
         2529.971     4.802937E-8
         2532.229     4.284338E-8
         2534.486     3.757785E-8
         2536.748     3.226483E-8
          2539.01     2.687014E-8
         2541.277     2.348051E-8
         2543.545     2.166020E-8
         2545.813     1.983336E-8
         2548.084     1.799904E-8
         2550.358     1.628072E-8
         2552.635     1.522241E-8
         2554.911     1.416051E-8
         2557.191     1.309343E-8
         2559.471     1.202325E-8
         2561.755     1.149288E-8
         2564.042     1.112503E-8
         2566.329     1.075580E-8
         2568.619     1.038478E-8
         2570.908     1.016672E-8
         2573.205     1.018257E-8
           2575.5     1.019833E-8
         2577.797     1.021402E-8
         2580.097     1.022969E-8
         2582.399     1.024577E-8
         2584.704     1.026179E-8
          2587.01     1.027775E-8
         2589.318     1.029363E-8
         2591.629     1.030981E-8
          2593.94     1.032606E-8
         2596.254     1.034224E-8
         2598.573     1.035838E-8
         2600.889     1.048021E-8
          2603.21     1.077307E-8
         2605.532     1.106678E-8
         2607.856     1.136156E-8
         2610.185     1.165334E-8
         2612.512     1.189457E-8
         2614.843     1.213691E-8
         2617.177     1.238009E-8
          2619.51     1.262381E-8
         2621.849     1.714558E-8
         2624.188     2.281578E-8
         2626.528     2.850877E-8
         2628.873     3.422862E-8
         2631.217     4.523852E-8
         2633.566     6.119870E-8
         2635.916     7.722355E-8
         2638.267     9.330444E-8
          2640.62     1.067642E-7
         2642.977     1.127574E-7
         2645.334     1.187705E-7
         2647.695     1.248101E-7
         2650.057     1.303895E-7
         2652.422     1.164856E-7
         2654.788     1.025315E-7
         2657.157     8.850866E-8
         2659.526     7.444338E-8
         2661.899     6.252716E-8
         2664.275     5.111664E-8
         2666.652     3.966457E-8
         2669.031     2.815821E-8
         2671.412     2.506815E-8
         2673.796     2.778195E-8
         2676.181     3.050474E-8
          2678.57     3.324007E-8
          2680.96     3.641616E-8
          2683.35     4.024242E-8
         2685.746     4.409072E-8
          2688.14     4.794728E-8
          2690.54     4.969818E-8
         2692.941     4.411147E-8
         2695.343     3.850390E-8
         2697.748     3.286987E-8
         2700.153     2.779913E-8
         2702.563     3.126835E-8
         2704.975     3.476162E-8
         2707.387     3.827721E-8
         2709.804     4.181981E-8
         2712.222     4.775420E-8
         2714.642     5.393624E-8
         2717.063     6.016094E-8
         2719.486     6.642967E-8
         2721.915     7.602094E-8
         2724.343     8.654816E-8
         2726.772     9.714903E-8
         2729.205     1.078238E-7
          2731.64     1.159646E-7
         2734.078     1.228885E-7
         2736.517     1.298552E-7
         2738.958     1.368682E-7
         2741.402     1.350622E-7
         2743.849     1.266211E-7
         2746.296     1.181238E-7
         2748.747     1.095589E-7
         2751.198     1.005352E-7
         2753.653     9.104349E-8
         2756.111     8.152899E-8
         2758.569     7.199734E-8
         2761.031     7.024824E-8
         2763.495     7.935564E-8
         2765.958     8.847366E-8
         2768.427     9.762403E-8
         2770.898     1.096744E-7
         2773.369     1.267903E-7
         2775.844     1.439564E-7
          2778.32     1.611526E-7
         2780.799     1.748999E-7
          2783.28     1.813280E-7
         2785.764     1.877715E-7
         2788.249     1.942253E-7
         2790.736     1.920276E-7
         2793.227     1.691628E-7
          2795.72     1.462460E-7
         2798.213     1.232905E-7
         2800.709     1.012322E-7
         2803.209     8.150803E-8
         2805.709     6.175127E-8
         2808.213     4.193685E-8
         2810.718     2.727316E-8
         2813.226     2.549464E-8
         2815.736     2.371326E-8
         2818.247     2.192797E-8
         2820.764     2.470783E-8
         2823.278     3.797452E-8
         2825.798     5.128629E-8
          2828.32     6.462646E-8
         2830.843     7.855058E-8
         2833.369     9.363728E-8
         2835.898     1.087572E-7
         2838.426     1.238899E-7
         2840.959     1.288879E-7
         2843.495     1.171551E-7
         2846.031     1.054049E-7
         2848.571     9.362156E-8
         2851.112     8.503375E-8
         2853.655     8.056091E-8
         2856.202     7.607635E-8
         2858.751     7.158270E-8
         2861.301     6.821004E-8
         2863.853     6.591529E-8
         2866.407     6.361572E-8
         2868.965     6.130999E-8
         2871.526     5.882782E-8
         2874.087     5.622580E-8
         2876.652     5.361673E-8
         2879.218     5.100431E-8
         2881.788     5.138890E-8
         2884.358     5.308943E-8
         2886.931     5.479337E-8
         2889.507     5.650154E-8
         2892.084     6.566935E-8
         2894.666     7.662646E-8
         2897.248     8.759892E-8
         2899.832     9.859095E-8
         2902.421     8.525677E-8
          2905.01     7.027240E-8
         2907.601     5.531250E-8
         2910.198     4.099948E-8
          2912.79     3.449335E-8
         2915.392     2.798237E-8
         2917.992     2.149112E-8
         2920.594     1.820780E-8
         2923.203     2.573056E-8
         2925.807     3.322145E-8
          2928.42     4.071620E-8
         2931.033     5.068419E-8
         2933.646     6.442656E-8
         2936.266     7.816725E-8
         2938.885     9.186378E-8
         2941.506     9.135501E-8
         2944.131     8.034643E-8
         2946.757     6.936556E-8
         2949.387     5.839924E-8
         2952.018     5.904518E-8
         2954.653     6.320742E-8
          2957.29     6.736096E-8
         2959.926     7.150077E-8
         2962.567     8.731708E-8
          2965.21     1.034294E-7
         2967.856     1.195156E-7
         2970.505     1.321564E-7
         2973.155     1.302941E-7
         2975.808     1.284336E-7
         2978.461     1.265786E-7
         2981.121     1.220127E-7
          2983.78     1.137452E-7
         2986.441     1.054949E-7
         2989.104     9.726252E-8
         2991.772     8.750127E-8
         2994.442     7.698512E-8
         2997.113     6.649748E-8
         2999.788     5.602601E-8
         3002.464     5.411331E-8
         3005.142     5.293673E-8
         3007.826     5.176095E-8
         3010.507     5.402059E-8
         3013.194     7.100258E-8
         3015.883     8.794485E-8
         3018.573     1.048364E-7
         3021.267     1.221628E-7
          3023.96     1.399478E-7
          3026.66     1.577217E-7
          3029.36     1.754311E-7
         3032.062     1.780000E-7
          3034.77     1.758778E-7
         3037.475     1.737633E-7
         3040.186     1.716042E-7
         3042.897     1.688259E-7
         3045.612     1.660531E-7
         3048.332     1.632824E-7
         3051.051     1.513958E-7
         3053.772     1.250599E-7
         3056.497     9.877138E-8
         3059.222     7.258468E-8
         3061.954     5.518836E-8
         3064.685     4.134777E-8
         3067.418     2.754163E-8
         3070.156     1.456148E-8
         3072.896     1.479989E-8
         3075.637     1.503741E-8
          3078.38     1.527417E-8
         3081.126     1.844678E-8
         3083.877     2.584004E-8
         3086.628     3.320450E-8
         3089.381     4.054795E-8
         3092.137     4.103719E-8
         3094.895     3.954703E-8
         3097.659     3.805881E-8
         3100.422     3.591576E-8
         3103.187     3.009198E-8
         3105.955     2.424549E-8
         3108.729     1.836897E-8
         3111.501     1.604155E-8
