#  Table pcf675wsys.tab  Mon 12:21:19 02-Jun-97

#      WAVELENGTH      THROUGHPUT
#       angstroms                

            1850.     4.586983E-6
         1851.651     3.856110E-6
         1853.301     3.118666E-6
         1854.956     2.372474E-6
         1856.611     1.619916E-6
         1858.267     8.599086E-7
         1859.925     9.195951E-8
         1861.584     8.335456E-8
         1863.246     1.110114E-7
         1864.909     1.389397E-7
         1866.572     1.671199E-7
         1868.237     1.955738E-7
         1869.904     2.243178E-7
         1871.573     4.490695E-7
         1873.242     6.879042E-7
         1874.913     9.290666E-7
         1876.585     1.172586E-6
          1878.26     1.418655E-6
         1879.937     1.666448E-6
         1881.613     1.815078E-6
         1883.292     1.960976E-6
         1884.973     2.108156E-6
         1886.654     2.256453E-6
         1888.338     2.406054E-6
         1890.023     2.552527E-6
         1891.709     2.384598E-6
         1893.396     2.215147E-6
         1895.086     2.044080E-6
         1896.775     1.871704E-6
         1898.469     1.697474E-6
         1900.163     1.522709E-6
         1901.857     1.355167E-6
         1903.555     1.185919E-6
         1905.254     1.015164E-6
         1906.953     8.430223E-7
         1908.655     6.692649E-7
         1910.357     5.268042E-7
         1912.061     5.068597E-7
         1913.768     4.867164E-7
         1915.476     4.663838E-7
         1917.184     4.458746E-7
         1918.894     4.251748E-7
         1920.606     3.918750E-7
          1922.32     3.354739E-7
         1924.035     2.785740E-7
         1925.752     2.212027E-7
          1927.47     1.632968E-7
         1929.189     1.049165E-7
          1930.91     1.035341E-7
         1932.634     1.536274E-7
         1934.358     2.041513E-7
         1936.084     2.550748E-7
         1937.811     3.064384E-7
          1939.54     3.582695E-7
          1941.27     3.262633E-7
         1943.003     2.632744E-7
         1944.737     1.997283E-7
          1946.47     1.357047E-7
         1948.207     7.104387E-8
         1949.947     5.783698E-9
         1951.685     1.106613E-7
         1953.427     2.219688E-7
         1955.171     3.342335E-7
         1956.913     4.473231E-7
          1958.66     5.615179E-7
         1960.408     6.246905E-7
         1962.157     5.168735E-7
         1963.908     4.080367E-7
         1965.658     2.983828E-7
         1967.413     1.876410E-7
         1969.169     7.593006E-8
         1970.925     2.108974E-8
         1972.684     1.792447E-8
         1974.444     1.473326E-8
         1976.205     1.151408E-8
         1977.969     8.262973E-9
         1979.734     4.987516E-9
           1981.5     6.401231E-9
         1983.268     8.669890E-9
         1985.037     1.095656E-8
         1986.809     1.326384E-8
         1988.581     1.558907E-8
         1990.355     1.699658E-8
         1992.131     1.465175E-8
         1993.908     1.228646E-8
         1995.688     9.897689E-9
         1997.467     7.492760E-9
          1999.25     5.064201E-9
         2001.034     1.025204E-8
         2002.818     2.104787E-8
         2004.606     3.197029E-8
         2006.396     4.299390E-8
         2008.184     5.411070E-8
         2009.976     6.534928E-8
         2011.769     9.983722E-8
         2013.565     1.349932E-7
         2015.362     1.704939E-7
         2017.158     2.062948E-7
         2018.958     2.424849E-7
          2020.76     2.450556E-7
         2022.563     2.008985E-7
         2024.368     1.562740E-7
         2026.173     1.112405E-7
         2027.982     6.573486E-8
         2029.791     1.981328E-8
         2031.602     1.454524E-8
         2033.414     1.462799E-8
         2035.228     1.471109E-8
         2037.044     1.479459E-8
         2038.861     1.487840E-8
         2040.681     2.233501E-8
         2042.502     4.225616E-8
         2044.324     6.235500E-8
         2046.147     8.264168E-8
         2047.974     1.031322E-7
           2049.8     1.238014E-7
          2051.63     1.196305E-7
         2053.461     1.123318E-7
         2055.291     1.049699E-7
         2057.125     9.752781E-8
         2058.961     9.001295E-8
         2060.798     7.954947E-8
         2062.637     6.520835E-8
         2064.477     5.074243E-8
         2066.318     3.614347E-8
         2068.164     2.139129E-8
         2070.007     6.603371E-9
         2071.855     1.074050E-8
         2073.704     1.491434E-8
         2075.553     1.912282E-8
         2077.405     2.336829E-8
         2079.259     2.765490E-8
         2081.113     2.836358E-8
         2082.971     2.665996E-8
         2084.829     2.494174E-8
         2086.688     2.320796E-8
          2088.55     2.145718E-8
         2090.414     2.859185E-8
         2092.279     6.706239E-8
         2094.145     1.058524E-7
         2096.014     1.450041E-7
         2097.885     1.844837E-7
         2099.756     2.242716E-7
          2101.63     1.937909E-7
         2103.503     1.524714E-7
         2105.381     1.107600E-7
          2107.26     6.869272E-8
         2109.139     2.630085E-8
         2111.022     9.455063E-9
         2112.906     1.440231E-8
         2114.789     1.938276E-8
         2116.677     2.440952E-8
         2118.564     2.947302E-8
         2120.455     3.226952E-8
         2122.348     2.777160E-8
         2124.241     2.324178E-8
         2126.135     1.867584E-8
         2128.033     1.407184E-8
         2129.932     9.431354E-9
         2131.832     1.012584E-8
         2133.734     1.102436E-8
         2135.637     1.192926E-8
         2137.544     1.284183E-8
          2139.45     1.376289E-8
         2141.359     1.680564E-8
          2143.27     2.073253E-8
         2145.182     2.468708E-8
         2147.096     2.867347E-8
         2149.011     3.268725E-8
         2150.929     3.666797E-8
         2152.848     4.060469E-8
         2154.768     4.456933E-8
         2156.692     4.856713E-8
         2158.615     5.258548E-8
         2160.541     5.307964E-8
         2162.469     4.443498E-8
         2164.397     3.574167E-8
          2166.33     2.697188E-8
         2168.263     1.814629E-8
         2170.196     1.009008E-8
         2172.133     9.246999E-9
          2174.07     8.399093E-9
         2176.011     7.545057E-9
         2177.953     6.685507E-9
         2179.895     5.821073E-9
          2181.84     6.890812E-9
         2183.787     8.078337E-9
         2185.735     9.272179E-9
         2187.686     1.047356E-8
         2189.637     1.168116E-8
          2191.59     1.830485E-8
         2193.546     2.620874E-8
         2195.503     3.415387E-8
         2197.462     4.213738E-8
         2199.423     5.016937E-8
         2201.385     4.627364E-8
         2203.348     3.726819E-8
         2205.315     2.810348E-8
         2207.283     1.878536E-8
         2209.252     9.318954E-9
         2211.222     7.536677E-9
         2213.196     1.056662E-8
          2215.17     1.364124E-8
         2217.147     1.676533E-8
         2219.125     1.993688E-8
         2221.104     2.711144E-8
         2223.086     3.757031E-8
         2225.071     4.819151E-8
         2227.055     5.894938E-8
         2229.042     6.987766E-8
         2231.031     6.822137E-8
         2233.021     5.460661E-8
         2235.015     4.077160E-8
         2237.008     2.674924E-8
         2239.003     1.251998E-8
         2241.002     6.842932E-9
         2242.999     9.867890E-9
         2245.002     1.294015E-8
         2247.005     1.605097E-8
         2249.009     1.920426E-8
         2251.016     2.155482E-8
         2253.024     2.310356E-8
         2255.033     2.467154E-8
         2257.046     2.626001E-8
         2259.061     2.786790E-8
         2261.075     2.623392E-8
         2263.092     2.170927E-8
         2265.112     1.712125E-8
         2267.134     1.247231E-8
         2269.156     7.765586E-9
         2271.181     6.458433E-9
         2273.207     7.625964E-9
         2275.234     8.807749E-9
         2277.266     1.000530E-8
         2279.296     1.121478E-8
          2281.33     1.372454E-8
         2283.366     1.694774E-8
         2285.402     2.020542E-8
         2287.441     2.350555E-8
         2289.483     2.684402E-8
         2291.525     3.382193E-8
          2293.57     4.211549E-8
         2295.615     5.049394E-8
         2297.663     5.899490E-8
         2299.715     6.760681E-8
         2301.765     7.581747E-8
          2303.82     8.405640E-8
         2305.876     9.239046E-8
         2307.932     1.008150E-7
         2309.992     1.093416E-7
         2312.051     1.245401E-7
         2314.116     1.399659E-7
          2316.18     1.555497E-7
         2318.246     1.713065E-7
         2320.315     1.815247E-7
         2322.385     1.597683E-7
         2324.457     1.377384E-7
         2326.531     1.154624E-7
         2328.606     9.292362E-8
         2330.685     7.308252E-8
         2332.764     5.914928E-8
         2334.845     4.505413E-8
         2336.927     3.079967E-8
         2339.012     1.638352E-8
         2341.101     9.242918E-9
         2343.188     8.757535E-9
         2345.279     8.266367E-9
         2347.372     7.769152E-9
         2349.467     7.266206E-9
         2351.562     9.158051E-9
         2353.661     1.189571E-8
         2355.759     1.465834E-8
         2357.862     1.745345E-8
         2359.966     2.027731E-8
         2362.071     1.770963E-8
         2364.179     1.502296E-8
         2366.288     1.230963E-8
         2368.398     9.567642E-9
         2370.512     8.024600E-9
         2372.628     1.033286E-8
         2374.744     1.266252E-8
         2376.863     1.501662E-8
         2378.983     1.739254E-8
         2381.105     2.057670E-8
          2383.23     2.452054E-8
         2385.357     2.850191E-8
         2387.485     3.251911E-8
         2389.615     3.657408E-8
         2391.747     4.202017E-8
         2393.881     4.781245E-8
         2396.017     5.366182E-8
         2398.154     5.956111E-8
         2400.293     6.333924E-8
         2402.435     5.337758E-8
          2404.58     4.332077E-8
         2406.724     3.317655E-8
         2408.872     2.293186E-8
         2411.022     1.666823E-8
         2413.171     1.486835E-8
         2415.326     1.304853E-8
         2417.479     1.121552E-8
         2419.637     9.363220E-9
         2421.796     9.320662E-9
         2423.957     9.648147E-9
          2426.12     9.978431E-9
         2428.284     1.031110E-8
         2430.451     1.420031E-8
         2432.619     3.170240E-8
         2434.789     4.935132E-8
         2436.962     6.716166E-8
         2439.136     8.512004E-8
         2441.312     8.187787E-8
          2443.49     6.449920E-8
          2445.67     4.696375E-8
         2447.853     2.927869E-8
         2450.036     1.174708E-8
         2452.222     1.112031E-8
         2454.409     1.048813E-8
           2456.6     9.850114E-9
         2458.792     9.206715E-9
         2460.985     8.864331E-9
          2463.18     8.896026E-9
         2465.379     8.927801E-9
         2467.579     8.959626E-9
         2469.778     8.991469E-9
         2471.983     9.023183E-9
          2474.19     9.054944E-9
         2476.396     9.086707E-9
         2478.606     9.118564E-9
         2480.817     9.510559E-9
         2483.029     1.052282E-8
         2485.247     1.154415E-8
         2487.462     1.257132E-8
         2489.682     1.360750E-8
         2491.904     1.388517E-8
         2494.125     1.403602E-8
         2496.353     1.418804E-8
         2498.579     1.434076E-8
         2500.808     1.739871E-8
          2503.04     2.561225E-8
         2505.272     3.388339E-8
         2507.509     4.222409E-8
         2509.745     5.062185E-8
         2511.985     4.843108E-8
         2514.225     4.484882E-8
         2516.468     4.123766E-8
         2518.714     3.759588E-8
         2520.962     3.306704E-8
          2523.21     2.735448E-8
         2525.462     2.159373E-8
         2527.715     1.579213E-8
         2529.971     9.941979E-9
         2532.229     1.741216E-8
         2534.486     2.510675E-8
         2536.748     3.286918E-8
          2539.01     4.061935E-8
         2541.277     4.032521E-8
         2543.545     3.375613E-8
         2545.813     2.716405E-8
         2548.084     2.054552E-8
         2550.358     1.483109E-8
         2552.635     1.410190E-8
         2554.911     1.337020E-8
         2557.191     1.263488E-8
         2559.471     1.189738E-8
         2561.755     1.145903E-8
         2564.042     1.111035E-8
         2566.329     1.076033E-8
         2568.619     1.040863E-8
         2570.908     1.020227E-8
         2573.205     1.021817E-8
           2575.5     1.023398E-8
         2577.797     1.024974E-8
         2580.097     1.049530E-8
         2582.399     1.595032E-8
         2584.704     2.143096E-8
          2587.01     2.693251E-8
         2589.318     3.245314E-8
         2591.629     3.863983E-8
          2593.94     4.511751E-8
         2596.254     5.161979E-8
         2598.573     5.815621E-8
         2600.889     6.697558E-8
          2603.21     7.949886E-8
         2605.532     9.206362E-8
         2607.856     1.046788E-7
         2610.185     1.152016E-7
         2612.512     1.006997E-7
         2614.843     8.612075E-8
         2617.177     7.148004E-8
          2619.51     5.679627E-8
         2621.849     4.661418E-8
         2624.188     3.761793E-8
         2626.528     2.858455E-8
         2628.873     1.950754E-8
         2631.217     1.459492E-8
         2633.566     1.355686E-8
         2635.916     1.251435E-8
         2638.267     1.146795E-8
          2640.62     1.366671E-8
         2642.977     2.498143E-8
         2645.334     3.633630E-8
         2647.695     4.774407E-8
         2650.057     5.875571E-8
         2652.422     5.210493E-8
         2654.788     4.543016E-8
         2657.157     3.872258E-8
         2659.526     3.199474E-8
         2661.899     2.824795E-8
         2664.275     2.524007E-8
         2666.652     2.222106E-8
         2669.031     1.918758E-8
         2671.412     2.332656E-8
         2673.796     3.242758E-8
         2676.181     4.155957E-8
          2678.57     5.073450E-8
          2680.96     6.835722E-8
          2683.35     9.857680E-8
         2685.746     1.289736E-7
          2688.14     1.594388E-7
          2690.54     1.749350E-7
         2692.941     1.382178E-7
         2695.343     1.013657E-7
         2697.748     6.434196E-8
         2700.153     2.935009E-8
         2702.563     2.574541E-8
         2704.975     2.211462E-8
         2707.387     1.845953E-8
         2709.804     1.477524E-8
         2712.222     1.892368E-8
         2714.642     2.379468E-8
         2717.063     2.869963E-8
         2719.486     3.363964E-8
         2721.915     4.021230E-8
         2724.343     4.725177E-8
         2726.772     5.434070E-8
         2729.205     6.147923E-8
          2731.64     6.443238E-8
         2734.078     6.534140E-8
         2736.517     6.625514E-8
         2738.958     6.717406E-8
         2741.402     6.819320E-8
         2743.849     6.928871E-8
         2746.296     7.038990E-8
         2748.747     7.149830E-8
         2751.198     6.488105E-8
         2753.653     5.013399E-8
         2756.111     3.535159E-8
         2758.569     2.054263E-8
         2761.031     1.330108E-8
         2763.495     1.662709E-8
         2765.958     1.995700E-8
         2768.427     2.329874E-8
         2770.898     2.530685E-8
         2773.369     2.496549E-8
         2775.844     2.462311E-8
          2778.32     2.428009E-8
         2780.799     2.452993E-8
          2783.28     2.603182E-8
         2785.764     2.753733E-8
         2788.249     2.904524E-8
         2790.736     3.094547E-8
         2793.227     3.377777E-8
          2795.72     3.661646E-8
         2798.213     3.945989E-8
         2800.709     3.941841E-8
         2803.209     3.207766E-8
         2805.709     2.472479E-8
         2808.213     1.735047E-8
         2810.718     1.912581E-8
         2813.226     4.376279E-8
         2815.736     6.843911E-8
         2818.247     9.316926E-8
         2820.764     1.101191E-7
         2823.278     1.090316E-7
         2825.798     1.079403E-7
          2828.32     1.068466E-7
         2830.843     1.129023E-7
         2833.369     1.332581E-7
         2835.898     1.536587E-7
         2838.426     1.740766E-7
         2840.959     1.715344E-7
         2843.495     1.311397E-7
         2846.031     9.068550E-8
         2848.571     5.011713E-8
         2851.112     2.685003E-8
         2853.655     2.587550E-8
         2856.202     2.489841E-8
         2858.751     2.391934E-8
         2861.301     2.198763E-8
         2863.853     1.913705E-8
         2866.407     1.628052E-8
         2868.965     1.341638E-8
         2871.526     1.801692E-8
         2874.087     2.769251E-8
         2876.652     3.739425E-8
         2879.218     4.710832E-8
         2881.788     5.894065E-8
         2884.358     7.170398E-8
         2886.931     8.449307E-8
         2889.507     9.731401E-8
         2892.084     8.157153E-8
         2894.666     5.901858E-8
         2897.248     3.643389E-8
         2899.832     1.380885E-8
         2902.421     2.589022E-8
          2905.01     4.034728E-8
         2907.601     5.478015E-8
         2910.198     6.730866E-8
          2912.79     5.683176E-8
         2915.392     4.634704E-8
         2917.992     3.589409E-8
         2920.594     2.802242E-8
         2923.203     2.881664E-8
         2925.807     2.960735E-8
          2928.42     3.039833E-8
         2931.033     2.892433E-8
         2933.646     2.399939E-8
         2936.266     1.907479E-8
         2938.885     1.416574E-8
         2941.506     1.206963E-8
         2944.131     1.205254E-8
         2946.757     1.203541E-8
         2949.387     1.201825E-8
         2952.018     1.288012E-8
         2954.653     1.400751E-8
          2957.29     1.513256E-8
         2959.926     1.625392E-8
         2962.567     1.886601E-8
          2965.21     2.151433E-8
         2967.856     2.415835E-8
         2970.505     3.578398E-8
         2973.155     8.546769E-8
         2975.808     1.350788E-7
         2978.461     1.845209E-7
         2981.121     2.000644E-7
          2983.78     1.690983E-7
         2986.441     1.381980E-7
         2989.104     1.073667E-7
         2991.772     8.738542E-8
         2994.442     7.290617E-8
         2997.113     5.846638E-8
         2999.788     4.404907E-8
         3002.464     3.536222E-8
         3005.142     2.718311E-8
         3007.826     1.901202E-8
         3010.507     1.294391E-8
         3013.194     1.576210E-8
         3015.883     1.857368E-8
         3018.573     2.137680E-8
         3021.267     2.253977E-8
          3023.96     2.185978E-8
          3026.66     2.118003E-8
          3029.36     2.050254E-8
         3032.062     2.479101E-8
          3034.77     3.061561E-8
         3037.475     3.641528E-8
         3040.186     4.123982E-8
         3042.897     3.293871E-8
         3045.612     2.465721E-8
         3048.332     1.638580E-8
         3051.051     1.212276E-8
         3053.772     1.418183E-8
         3056.497     1.623701E-8
         3059.222     1.828405E-8
         3061.954     3.700606E-8
         3064.685     6.228273E-8
         3067.418     8.749539E-8
         3070.156     1.096851E-7
         3072.896     8.271578E-8
         3075.637     5.583140E-8
          3078.38     2.902035E-8
         3081.126     1.594847E-8
         3083.877     2.256793E-8
         3086.628     2.916161E-8
         3089.381     3.573649E-8
         3092.137     5.092317E-8
         3094.895     6.856477E-8
         3097.659     8.617867E-8
         3100.422     9.905322E-8
         3103.187     8.594520E-8
         3105.955     7.278599E-8
         3108.729     5.955913E-8
         3111.501     8.168639E-8
