#  Table pcf622wsys.tab  Mon 12:21:17 02-Jun-97

#      WAVELENGTH      THROUGHPUT
#       angstroms                

            1850.     1.092636E-6
         1851.651     4.229491E-7
         1853.301     1.325275E-7
         1854.956     1.311887E-7
         1856.611     3.955604E-7
         1858.267     7.306170E-7
         1859.925     2.775687E-7
         1861.584     1.882869E-7
         1863.246     2.525562E-7
         1864.909     3.062918E-7
         1866.572     3.731086E-7
         1868.237     5.293361E-7
         1869.904     5.240256E-7
         1871.573     1.980893E-7
         1873.242     1.033596E-7
         1874.913     2.631236E-7
         1876.585     4.117209E-7
          1878.26     2.792332E-7
         1879.937     1.583270E-7
         1881.613     2.223406E-7
         1883.292     1.710258E-7
         1884.973     9.902767E-8
         1886.654     5.863424E-8
         1888.338     6.103056E-8
         1890.023     1.129703E-7
         1891.709     3.293496E-7
         1893.396     3.486528E-7
         1895.086     2.687358E-7
         1896.775     1.671848E-7
         1898.469     8.349150E-8
         1900.163     1.937095E-8
         1901.857     4.472004E-9
         1903.555     5.284653E-9
         1905.254     4.264452E-8
         1906.953     6.129341E-8
         1908.655     4.053996E-8
         1910.357     4.955722E-9
         1912.061     3.266817E-9
         1913.768     3.753259E-9
         1915.476     2.900445E-9
         1917.184     3.086640E-9
         1918.894     1.348633E-8
         1920.606     3.559852E-8
          1922.32     5.562939E-8
         1924.035     4.378475E-8
         1925.752     4.493245E-8
          1927.47     4.596059E-8
         1929.189     8.823355E-8
          1930.91     1.057881E-7
         1932.634     6.952746E-8
         1934.358     1.835955E-8
         1936.084     1.061118E-8
         1937.811     1.322744E-8
          1939.54     3.117902E-8
          1941.27     3.919647E-8
         1943.003     2.544691E-8
         1944.737     9.411072E-9
          1946.47     1.697714E-8
         1948.207     6.016341E-8
         1949.947     1.812378E-7
         1951.685     1.629030E-7
         1953.427     1.200637E-7
         1955.171     5.964223E-8
         1956.913     2.117858E-8
          1958.66     1.450856E-8
         1960.408     1.452780E-8
         1962.157     5.593015E-9
         1963.908     1.033870E-8
         1965.658     6.283626E-8
         1967.413     1.141390E-7
         1969.169     1.216382E-7
         1970.925     7.991886E-8
         1972.684     2.931721E-8
         1974.444     1.000053E-8
         1976.205     9.377158E-9
         1977.969     1.838509E-8
         1979.734     1.425481E-8
           1981.5     1.603038E-8
         1983.268     7.950071E-8
         1985.037     1.972819E-7
         1986.809     2.716850E-7
         1988.581     2.489485E-7
         1990.355     1.868837E-7
         1992.131     1.278858E-7
         1993.908     7.968531E-8
         1995.688     5.006383E-8
         1997.467     4.657823E-8
          1999.25     6.655602E-8
         2001.034     8.891609E-8
         2002.818     1.032776E-7
         2004.606     1.022339E-7
         2006.396     7.095635E-8
         2008.184     1.239312E-8
         2009.976     7.535607E-9
         2011.769     3.107646E-8
         2013.565     4.788969E-8
         2015.362     4.696803E-8
         2017.158     3.879284E-8
         2018.958     2.832542E-8
          2020.76     2.163678E-8
         2022.563     1.964673E-8
         2024.368     1.551181E-8
         2026.173     2.328732E-8
         2027.982     5.756646E-8
         2029.791     7.432485E-8
         2031.602     5.114246E-8
         2033.414     4.102154E-8
         2035.228     4.529196E-8
         2037.044     4.993207E-8
         2038.861     5.099277E-8
         2040.681     5.025159E-8
         2042.502     4.748364E-8
         2044.324     4.910099E-8
         2046.147     7.192493E-8
         2047.974     9.801863E-8
           2049.8     8.384402E-8
          2051.63     7.168505E-8
         2053.461     7.226583E-8
         2055.291     5.867004E-8
         2057.125     3.900503E-8
         2058.961     2.698792E-8
         2060.798     2.813158E-8
         2062.637     3.357382E-8
         2064.477     2.912480E-8
         2066.318     2.264839E-8
         2068.164     1.878047E-8
         2070.007     7.406662E-9
         2071.855     4.117626E-9
         2073.704     1.040659E-8
         2075.553     3.550836E-8
         2077.405     3.487113E-8
         2079.259     2.219472E-8
         2081.113     1.483729E-8
         2082.971     1.100506E-8
         2084.829     7.512530E-9
         2086.688     8.224240E-9
          2088.55     1.375187E-8
         2090.414     1.987439E-8
         2092.279     2.741279E-8
         2094.145     3.336266E-8
         2096.014     2.185125E-8
         2097.885     8.887636E-9
         2099.756     7.098399E-9
          2101.63     1.113792E-8
         2103.503     7.652107E-9
         2105.381     6.130064E-9
          2107.26     8.463402E-9
         2109.139     7.086968E-9
         2111.022     5.713834E-9
         2112.906     1.613390E-8
         2114.789     3.401772E-8
         2116.677     3.948857E-8
         2118.564     3.339567E-8
         2120.455     4.104423E-8
         2122.348     5.307477E-8
         2124.241     4.952784E-8
         2126.135     2.817927E-8
         2128.033     1.142000E-8
         2129.932     1.144156E-8
         2131.832     2.322562E-8
         2133.734     1.854018E-8
         2135.637     8.977779E-9
         2137.544     8.095663E-9
          2139.45     2.034869E-8
         2141.359     3.917649E-8
          2143.27     4.715795E-8
         2145.182     4.204218E-8
         2147.096     2.955196E-8
         2149.011     1.590496E-8
         2150.929     9.423666E-9
         2152.848     1.118107E-8
         2154.768     1.182863E-8
         2156.692     8.361622E-9
         2158.615     8.280527E-9
         2160.541     1.296607E-8
         2162.469     1.803042E-8
         2164.397     1.928075E-8
          2166.33     1.090055E-8
         2168.263     5.701095E-9
         2170.196     5.658585E-9
         2172.133     7.897634E-9
          2174.07     9.144117E-9
         2176.011     5.070950E-9
         2177.953     7.233409E-9
         2179.895     1.493089E-8
          2181.84     1.604321E-8
         2183.787     2.657123E-8
         2185.735     3.294265E-8
         2187.686     2.198404E-8
         2189.637     1.685094E-8
          2191.59     1.851000E-8
         2193.546     2.428135E-8
         2195.503     2.076346E-8
         2197.462     1.594623E-8
         2199.423     1.436062E-8
         2201.385     1.265074E-8
         2203.348     8.349433E-9
         2205.315     8.064307E-9
         2207.283     1.437379E-8
         2209.252     2.261030E-8
         2211.222     3.315427E-8
         2213.196     3.800853E-8
          2215.17     3.779132E-8
         2217.147     2.874828E-8
         2219.125     1.591028E-8
         2221.104     1.108650E-8
         2223.086     1.264222E-8
         2225.071     1.636057E-8
         2227.055     1.462993E-8
         2229.042     9.475651E-9
         2231.031     1.067869E-8
         2233.021     1.170542E-8
         2235.015     7.794700E-9
         2237.008     5.427141E-9
         2239.003     6.125123E-9
         2241.002     1.166829E-8
         2242.999     1.919987E-8
         2245.002     1.699451E-8
         2247.005     9.693452E-9
         2249.009     8.515023E-9
         2251.016     1.211310E-8
         2253.024     1.625787E-8
         2255.033     1.844764E-8
         2257.046     1.585642E-8
         2259.061     1.271527E-8
         2261.075     1.297427E-8
         2263.092     1.475944E-8
         2265.112     1.392857E-8
         2267.134     1.192029E-8
         2269.156     9.470815E-9
         2271.181     6.711066E-9
         2273.207     7.831451E-9
         2275.234     1.314691E-8
         2277.266     1.971932E-8
         2279.296     2.390026E-8
          2281.33     2.527115E-8
         2283.366     1.862065E-8
         2285.402     1.053648E-8
         2287.441     1.083867E-8
         2289.483     2.395698E-8
         2291.525     4.251051E-8
          2293.57     4.731845E-8
         2295.615     3.613620E-8
         2297.663     2.678846E-8
         2299.715     2.015005E-8
         2301.765     1.145370E-8
          2303.82     7.545492E-9
         2305.876     9.942735E-9
         2307.932     1.306731E-8
         2309.992     1.280761E-8
         2312.051     1.813978E-8
         2314.116     2.408068E-8
          2316.18     1.659326E-8
         2318.246     1.582774E-8
         2320.315     2.828380E-8
         2322.385     3.704917E-8
         2324.457     2.992349E-8
         2326.531     1.439434E-8
         2328.606     9.012058E-9
         2330.685     7.598849E-9
         2332.764     6.895581E-9
         2334.845     6.931144E-9
         2336.927     7.811561E-9
         2339.012     8.915748E-9
         2341.101     7.938978E-9
         2343.188     7.073489E-9
         2345.279     7.108963E-9
         2347.372     7.144537E-9
         2349.467     7.180186E-9
         2351.562     7.215460E-9
         2353.661     7.250691E-9
         2355.759     7.285948E-9
         2357.862     7.321329E-9
         2359.966     7.356783E-9
         2362.071     7.391688E-9
         2364.179     7.575891E-9
         2366.288     1.057699E-8
         2368.398     2.204153E-8
         2370.512     3.171102E-8
         2372.628     2.159986E-8
         2374.744     1.068068E-8
         2376.863     2.160780E-8
         2378.983     4.623946E-8
         2381.105     5.295298E-8
          2383.23     4.581455E-8
         2385.357     4.337126E-8
         2387.485     4.516765E-8
         2389.615     4.885004E-8
         2391.747     4.931320E-8
         2393.881     4.993282E-8
         2396.017     6.419987E-8
         2398.154     8.138455E-8
         2400.293     6.845093E-8
         2402.435     5.354205E-8
          2404.58     5.752283E-8
         2406.724     6.005986E-8
         2408.872     6.039569E-8
         2411.022     6.981684E-8
         2413.171     7.752030E-8
         2415.326     7.095512E-8
         2417.479     5.901235E-8
         2419.637     4.726520E-8
         2421.796     4.928927E-8
         2423.957     4.727812E-8
          2426.12     3.560548E-8
         2428.284     3.390580E-8
         2430.451     4.098903E-8
         2432.619     4.803866E-8
         2434.789     5.650348E-8
         2436.962     6.240047E-8
         2439.136     5.492714E-8
         2441.312     4.888197E-8
          2443.49     4.935625E-8
          2445.67     4.219843E-8
         2447.853     2.946752E-8
         2450.036     2.196325E-8
         2452.222     2.899300E-8
         2454.409     3.155927E-8
           2456.6     2.036144E-8
         2458.792     1.608708E-8
         2460.985     1.437608E-8
          2463.18     1.183172E-8
         2465.379     1.074980E-8
         2467.579     1.226175E-8
         2469.778     2.104071E-8
         2471.983     1.985050E-8
          2474.19     1.287882E-8
         2476.396     9.213176E-9
         2478.606     1.049358E-8
         2480.817     2.112251E-8
         2483.029     3.995734E-8
         2485.247     4.128454E-8
         2487.462     2.921013E-8
         2489.682     1.964454E-8
         2491.904     2.169283E-8
         2494.125     1.902521E-8
         2496.353     1.605048E-8
         2498.579     2.503711E-8
         2500.808     2.574215E-8
          2503.04     3.284728E-8
         2505.272     4.897001E-8
         2507.509     5.013308E-8
         2509.745     4.988673E-8
         2511.985     5.632041E-8
         2514.225     5.543562E-8
         2516.468     3.925673E-8
         2518.714     3.010837E-8
         2520.962     3.589595E-8
          2523.21     3.487097E-8
         2525.462     2.288622E-8
         2527.715     1.775011E-8
         2529.971     1.563460E-8
         2532.229     1.650901E-8
         2534.486     3.223793E-8
         2536.748     3.419187E-8
          2539.01     3.107276E-8
         2541.277     3.007700E-8
         2543.545     1.519784E-8
         2545.813     1.023060E-8
         2548.084     1.017706E-8
         2550.358     1.424028E-8
         2552.635     3.209681E-8
         2554.911     4.196908E-8
         2557.191     3.460411E-8
         2559.471     3.142295E-8
         2561.755     2.777451E-8
         2564.042     1.991722E-8
         2566.329     2.536744E-8
         2568.619     2.126345E-8
         2570.908     1.696692E-8
         2573.205     2.190488E-8
           2575.5     3.356667E-8
         2577.797     3.486404E-8
         2580.097     3.830020E-8
         2582.399     4.956277E-8
         2584.704     4.425042E-8
          2587.01     3.778376E-8
         2589.318     4.671046E-8
         2591.629     5.620527E-8
          2593.94     4.600189E-8
         2596.254     4.678221E-8
         2598.573     5.330284E-8
         2600.889     5.580863E-8
          2603.21     5.247612E-8
         2605.532     3.931419E-8
         2607.856     3.539146E-8
         2610.185     4.665880E-8
         2612.512     5.267612E-8
         2614.843     4.644047E-8
         2617.177     3.339220E-8
          2619.51     3.055816E-8
         2621.849     3.522267E-8
         2624.188     4.792551E-8
         2626.528     4.609343E-8
         2628.873     3.797052E-8
         2631.217     3.311681E-8
         2633.566     3.626447E-8
         2635.916     3.222047E-8
         2638.267     1.965702E-8
          2640.62     1.518407E-8
         2642.977     2.062596E-8
         2645.334     2.905019E-8
         2647.695     3.562313E-8
         2650.057     4.138517E-8
         2652.422     3.458626E-8
         2654.788     2.615145E-8
         2657.157     2.805805E-8
         2659.526     2.401342E-8
         2661.899     2.404724E-8
         2664.275     3.414671E-8
         2666.652     4.286954E-8
         2669.031     4.834769E-8
         2671.412     4.701907E-8
         2673.796     5.005545E-8
         2676.181     4.836834E-8
          2678.57     2.639067E-8
          2680.96     2.634222E-8
          2683.35     3.857133E-8
         2685.746     4.803784E-8
          2688.14     4.654295E-8
          2690.54     5.212808E-8
         2692.941     5.984389E-8
         2695.343     3.508491E-8
         2697.748     2.173414E-8
         2700.153     2.348640E-8
         2702.563     1.860443E-8
         2704.975     1.978394E-8
         2707.387     3.097355E-8
         2709.804     4.574197E-8
         2712.222     6.285891E-8
         2714.642     6.467284E-8
         2717.063     5.275568E-8
         2719.486     3.967676E-8
         2721.915     2.498322E-8
         2724.343     5.124744E-8
         2726.772     7.122614E-8
         2729.205     5.022716E-8
          2731.64     3.854325E-8
         2734.078     5.016144E-8
         2736.517     4.417413E-8
         2738.958     3.004884E-8
         2741.402     3.059408E-8
         2743.849     3.033514E-8
         2746.296     3.464941E-8
         2748.747     2.851225E-8
         2751.198     2.614725E-8
         2753.653     4.217182E-8
         2756.111     3.040603E-8
         2758.569     3.163243E-8
         2761.031     4.663277E-8
         2763.495     5.227683E-8
         2765.958     6.288680E-8
         2768.427     5.531814E-8
         2770.898     3.121455E-8
         2773.369     3.568108E-8
         2775.844     6.997720E-8
          2778.32     6.461228E-8
         2780.799     4.509988E-8
          2783.28     4.796846E-8
         2785.764     6.285408E-8
         2788.249     6.697564E-8
         2790.736     7.346749E-8
         2793.227     7.168149E-8
          2795.72     6.354701E-8
         2798.213     6.438234E-8
         2800.709     5.717806E-8
         2803.209     4.996122E-8
         2805.709     5.168319E-8
         2808.213     4.496695E-8
         2810.718     5.053216E-8
         2813.226     3.834062E-8
         2815.736     3.196201E-8
         2818.247     3.075042E-8
         2820.764     5.471138E-8
         2823.278     8.320794E-8
         2825.798     8.343604E-8
          2828.32     7.379703E-8
         2830.843     7.534171E-8
         2833.369     9.240782E-8
         2835.898     8.209782E-8
         2838.426     5.947385E-8
         2840.959     3.766395E-8
         2843.495     3.251693E-8
         2846.031     4.057248E-8
         2848.571     5.692014E-8
         2851.112     5.630141E-8
         2853.655     4.890225E-8
         2856.202     6.764348E-8
         2858.751     7.335034E-8
         2861.301     5.619995E-8
         2863.853     3.401347E-8
         2866.407     3.573854E-8
         2868.965     6.139158E-8
         2871.526     6.652633E-8
         2874.087     5.802631E-8
         2876.652     5.166244E-8
         2879.218     4.731909E-8
         2881.788     6.428651E-8
         2884.358     6.658725E-8
         2886.931     5.791258E-8
         2889.507     5.854228E-8
         2892.084     6.025031E-8
         2894.666     6.414208E-8
         2897.248     6.872922E-8
         2899.832     8.408090E-8
         2902.421     6.361894E-8
          2905.01     4.184809E-8
         2907.601     4.675802E-8
         2910.198     6.324861E-8
          2912.79     6.500395E-8
         2915.392     8.332909E-8
         2917.992     8.662929E-8
         2920.594     5.867003E-8
         2923.203     4.508395E-8
         2925.807     5.041995E-8
          2928.42     4.697194E-8
         2931.033     4.075798E-8
         2933.646     3.599644E-8
         2936.266     4.855143E-8
         2938.885     6.496553E-8
         2941.506     7.015937E-8
         2944.131     7.221892E-8
         2946.757     5.913649E-8
         2949.387     4.995902E-8
         2952.018     4.167761E-8
         2954.653     3.581997E-8
          2957.29     3.381369E-8
         2959.926     2.389860E-8
         2962.567     3.996510E-8
          2965.21     4.027324E-8
         2967.856     3.267912E-8
         2970.505     1.670664E-8
         2973.155     1.194599E-8
         2975.808     1.462894E-8
         2978.461     2.310975E-8
         2981.121     5.229058E-8
          2983.78     5.268112E-8
         2986.441     2.739177E-8
         2989.104     2.905468E-8
         2991.772     3.451677E-8
         2994.442     2.939906E-8
         2997.113     3.297360E-8
         2999.788     4.833470E-8
         3002.464     5.201689E-8
         3005.142     5.570654E-8
         3007.826     4.467634E-8
         3010.507     2.874159E-8
         3013.194     2.231366E-8
         3015.883     2.469462E-8
         3018.573     2.981442E-8
         3021.267     3.828350E-8
          3023.96     5.632539E-8
          3026.66     5.277829E-8
          3029.36     3.712058E-8
         3032.062     7.342707E-8
          3034.77     7.476822E-8
         3037.475     4.260449E-8
         3040.186     2.533387E-8
         3042.897     2.167453E-8
         3045.612     2.357248E-8
         3048.332     1.879101E-8
         3051.051     1.365258E-8
         3053.772     2.937874E-8
         3056.497     4.942078E-8
         3059.222     2.645028E-8
         3061.954     1.181601E-8
         3064.685     1.987035E-8
         3067.418     2.760876E-8
         3070.156     1.495513E-8
         3072.896     1.567806E-8
         3075.637     3.320310E-8
          3078.38     3.198690E-8
         3081.126     1.989627E-8
         3083.877     1.866153E-8
         3086.628     2.176830E-8
         3089.381     2.602957E-8
         3092.137     2.628598E-8
         3094.895     2.715318E-8
         3097.659     3.169140E-8
         3100.422     1.473711E-8
         3103.187     1.885964E-8
         3105.955     5.150450E-8
         3108.729     5.427421E-8
         3111.501     2.672132E-8
