#  Table pcf791wsys.tab  Mon 12:21:20 02-Jun-97

#      WAVELENGTH      THROUGHPUT
#       angstroms                

            1850.     2.456794E-7
         1851.651     2.118467E-7
         1853.301     1.777087E-7
         1854.956     1.431649E-7
         1856.611     1.083252E-7
         1858.267     7.313970E-8
         1859.925     3.758549E-8
         1861.584     5.462412E-8
         1863.246     7.434975E-8
         1864.909     9.426903E-8
         1866.572     1.143682E-7
         1868.237     1.346628E-7
         1869.904     1.551644E-7
         1871.573     2.261930E-7
         1873.242     3.009640E-7
         1874.913     3.764609E-7
         1876.585     4.526931E-7
          1878.26     5.297208E-7
         1879.937     6.072522E-7
         1881.613     6.751996E-7
         1883.292     7.433216E-7
         1884.973     8.120475E-7
         1886.654     8.812991E-7
         1888.338     9.511642E-7
         1890.023     1.021942E-6
         1891.709     1.118243E-6
         1893.396     1.215349E-6
         1895.086     1.313314E-6
         1896.775     1.411963E-6
         1898.469     1.511603E-6
         1900.163     1.590786E-6
         1901.857     1.471058E-6
         1903.555     1.350098E-6
         1905.254     1.228047E-6
         1906.953     1.104990E-6
         1908.655     9.807649E-7
         1910.357     8.553252E-7
         1912.061     7.280344E-7
         1913.768     5.995455E-7
         1915.476     4.699183E-7
         1917.184     3.392333E-7
         1918.894     2.074036E-7
         1920.606     1.145854E-7
          1922.32     9.460035E-8
         1924.035     7.443925E-8
         1925.752     5.411171E-8
          1927.47     3.359547E-8
         1929.189     1.291183E-8
          1930.91     1.744367E-8
         1932.634     4.475666E-8
         1934.358     7.230557E-8
         1936.084     1.000734E-7
         1937.811     1.280823E-7
          1939.54     1.563473E-7
          1941.27     1.945364E-7
         1943.003     2.366079E-7
         1944.737     2.790401E-7
          1946.47     3.217797E-7
         1948.207     3.649332E-7
         1949.947     4.084753E-7
         1951.685     3.503145E-7
         1953.427     2.883430E-7
         1955.171     2.258271E-7
         1956.913     1.628404E-7
          1958.66     9.922665E-8
         1960.408     5.161138E-8
         1962.157     5.820891E-8
         1963.908     6.486631E-8
         1965.658     7.157124E-8
         1967.413     7.834017E-8
         1969.169     8.516587E-8
         1970.925     8.512608E-8
         1972.684     7.883359E-8
         1974.444     7.248837E-8
         1976.205     6.608630E-8
         1977.969     5.961958E-8
         1979.734     5.310322E-8
           1981.5     4.500448E-8
         1983.268     3.655733E-8
         1985.037     2.804120E-8
         1986.809     1.944647E-8
         1988.581     1.078298E-8
         1990.355     4.413037E-9
         1992.131     7.507362E-9
         1993.908     1.062795E-8
         1995.688     1.377879E-8
         1997.467     1.695022E-8
          1999.25     2.015208E-8
         2001.034     2.446888E-8
         2002.818     2.961413E-8
         2004.606     3.481908E-8
         2006.396     4.007163E-8
         2008.184     4.536794E-8
         2009.976     5.072166E-8
         2011.769     4.875491E-8
         2013.565     4.666688E-8
         2015.362     4.455663E-8
         2017.158     4.242682E-8
         2018.958     4.027211E-8
          2020.76     3.718655E-8
         2022.563     3.282143E-8
         2024.368     2.840970E-8
         2026.173     2.395714E-8
         2027.982     1.945750E-8
         2029.791     1.491632E-8
         2031.602     1.265053E-8
         2033.414     1.066862E-8
         2035.228     8.667281E-9
         2037.044     6.645183E-9
         2038.861     4.604681E-9
         2040.681     3.493360E-9
         2042.502     3.968513E-9
         2044.324     4.447815E-9
         2046.147     4.931511E-9
         2047.974     5.419978E-9
           2049.8     5.912621E-9
          2051.63     6.882414E-9
         2053.461     7.919359E-9
         2055.291     8.964598E-9
         2057.125     1.002055E-8
         2058.961     1.108615E-8
         2060.798     1.124367E-8
         2062.637     1.020187E-8
         2064.477     9.150861E-9
         2066.318     8.090035E-9
         2068.164     7.017925E-9
         2070.007     5.946397E-9
         2071.855     7.117953E-9
         2073.704     8.299797E-9
         2075.553     9.491345E-9
         2077.405     1.069326E-8
         2079.259     1.190671E-8
         2081.113     2.416694E-8
         2082.971     4.393243E-8
         2084.829     6.385856E-8
         2086.688     8.395641E-8
          2088.55     1.042428E-7
         2090.414     1.188921E-7
         2092.279     1.132310E-7
         2094.145     1.075200E-7
         2096.014     1.017528E-7
         2097.885     9.593460E-8
         2099.756     9.006803E-8
          2101.63     7.709499E-8
         2103.503     6.296732E-8
         2105.381     4.870542E-8
          2107.26     3.432159E-8
         2109.139     1.982655E-8
         2111.022     2.051524E-8
         2112.906     3.416378E-8
         2114.789     4.790406E-8
         2116.677     6.177219E-8
         2118.564     7.574181E-8
         2120.455     8.358035E-8
         2122.348     7.168572E-8
         2124.241     5.970674E-8
         2126.135     4.763227E-8
         2128.033     3.545717E-8
         2129.932     2.318565E-8
         2131.832     2.162860E-8
         2133.734     2.045973E-8
         2135.637     1.928200E-8
         2137.544     1.809367E-8
          2139.45     1.690158E-8
         2141.359     1.501062E-8
          2143.27     1.282305E-8
         2145.182     1.061966E-8
         2147.096     8.398131E-9
         2149.011     6.160924E-9
         2150.929     6.382716E-9
         2152.848     9.251140E-9
         2154.768     1.214022E-8
         2156.692     1.505375E-8
         2158.615     1.798256E-8
         2160.541     2.122725E-8
         2162.469     2.524107E-8
         2164.397     2.927687E-8
          2166.33     3.334759E-8
         2168.263     3.744361E-8
         2170.196     4.048379E-8
         2172.133     3.395482E-8
          2174.07     2.738888E-8
         2176.011     2.077589E-8
         2177.953     1.412061E-8
         2179.895     7.427927E-9
          2181.84     1.790723E-8
         2183.787     2.943866E-8
         2185.735     4.103189E-8
         2187.686     5.269879E-8
         2189.637     6.442649E-8
          2191.59     6.286570E-8
         2193.546     5.823184E-8
         2195.503     5.357326E-8
         2197.462     4.889164E-8
         2199.423     4.418104E-8
         2201.385     4.977559E-8
         2203.348     5.980565E-8
         2205.315     7.000237E-8
         2207.283     8.035916E-8
         2209.252     9.087030E-8
         2211.222     8.544166E-8
         2213.196     6.996675E-8
          2215.17     5.425162E-8
         2217.147     3.827168E-8
         2219.125     2.203720E-8
         2221.104     1.392219E-8
         2223.086     1.235301E-8
         2225.071     1.075788E-8
         2227.055     9.140629E-9
         2229.042     7.496176E-9
         2231.031     6.577976E-9
         2233.021     6.348805E-9
         2235.015     6.115481E-9
         2237.008     5.878555E-9
         2239.003     5.637694E-9
         2241.002     6.910710E-9
         2242.999     9.719064E-9
         2245.002     1.257129E-8
         2247.005     1.545927E-8
         2249.009     1.838664E-8
         2251.016     2.044276E-8
         2253.024     2.162913E-8
         2255.033     2.282997E-8
         2257.046     2.404622E-8
         2259.061     2.527709E-8
         2261.075     2.374206E-8
         2263.092     1.974053E-8
         2265.112     1.568293E-8
         2267.134     1.157140E-8
         2269.156     7.408743E-9
         2271.181     5.959250E-9
         2273.207     6.483851E-9
         2275.234     7.014674E-9
         2277.266     7.552397E-9
         2279.296     8.095294E-9
          2281.33     1.012343E-8
         2283.366     1.296270E-8
         2285.402     1.583246E-8
         2287.441     1.873973E-8
         2289.483     2.168087E-8
         2291.525     2.687138E-8
          2293.57     3.288237E-8
         2295.615     3.895477E-8
         2297.663     4.511648E-8
         2299.715     5.135863E-8
         2301.765     5.076336E-8
          2303.82     4.903585E-8
         2305.876     4.728479E-8
         2307.932     4.551113E-8
         2309.992     4.371243E-8
         2312.051     3.692032E-8
         2314.116     3.001401E-8
          2316.18     2.303227E-8
         2318.246     1.596829E-8
         2320.315     1.022473E-8
         2322.385     1.231342E-8
         2324.457     1.442701E-8
         2326.531     1.656287E-8
         2328.606     1.872260E-8
         2330.685     1.929114E-8
         2332.764     1.655766E-8
         2334.845     1.379218E-8
         2336.927     1.099523E-8
         2339.012     8.166318E-9
         2341.101     1.256891E-8
         2343.188     2.356843E-8
         2345.279     3.468936E-8
         2347.372     4.593753E-8
         2349.467     5.730568E-8
         2351.562     5.496082E-8
         2353.661     4.783719E-8
         2355.759     4.064532E-8
         2357.862     3.336567E-8
         2359.966     2.600790E-8
         2362.071     2.245232E-8
         2364.179     1.892105E-8
         2366.288     1.535476E-8
         2368.398     1.175085E-8
         2370.512     9.745937E-9
         2372.628     1.287603E-8
         2374.744     1.603518E-8
         2376.863     1.922751E-8
         2378.983     2.244948E-8
         2381.105     2.222786E-8
          2383.23     1.878765E-8
         2385.357     1.531330E-8
         2387.485     1.180631E-8
         2389.615     8.264951E-9
         2391.747     7.818129E-9
         2393.881     8.061131E-9
         2396.017     8.306333E-9
         2398.154     8.553428E-9
         2400.293     9.049013E-9
         2402.435     1.110889E-8
          2404.58     1.318777E-8
         2406.724     1.528405E-8
         2408.872     1.740042E-8
         2411.022     2.010294E-8
         2413.171     2.345397E-8
         2415.326     2.684065E-8
         2417.479     3.025045E-8
         2419.637     3.369465E-8
         2421.796     3.021915E-8
         2423.957     2.530398E-8
          2426.12     2.034227E-8
         2428.284     1.534002E-8
         2430.451     1.212880E-8
         2432.619     1.591805E-8
         2434.789     1.973884E-8
         2436.962     2.359436E-8
         2439.136     2.748168E-8
         2441.312     3.532221E-8
          2443.49     4.581965E-8
          2445.67     5.640973E-8
         2447.853     6.708809E-8
         2450.036     7.742007E-8
         2452.222     6.261823E-8
         2454.409     4.769351E-8
           2456.6     3.263536E-8
         2458.792     1.745497E-8
         2460.985     1.918409E-8
          2463.18     4.189731E-8
         2465.379     6.480785E-8
         2467.579     8.789868E-8
         2469.778     1.111445E-7
         2471.983     1.027462E-7
          2474.19     9.069445E-8
         2476.396     7.856669E-8
         2478.606     6.632631E-8
         2480.817     5.457843E-8
         2483.029     4.373565E-8
         2485.247     3.279241E-8
         2487.462     2.178339E-8
         2489.682     1.067441E-8
         2491.904     9.508402E-9
         2494.125     1.001412E-8
         2496.353     1.052451E-8
         2498.579     1.103804E-8
         2500.808     1.200145E-8
          2503.04     1.376062E-8
         2505.272     1.553196E-8
         2507.509     1.731802E-8
         2509.745     1.911613E-8
         2511.985     2.360808E-8
         2514.225     2.847688E-8
         2516.468     3.338319E-8
         2518.714     3.832930E-8
         2520.962     3.859776E-8
          2523.21     3.253967E-8
         2525.462     2.643039E-8
         2527.715     2.027773E-8
         2529.971     1.407350E-8
         2532.229     1.458356E-8
         2534.486     1.518580E-8
         2536.748     1.579310E-8
          2539.01     1.637769E-8
         2541.277     1.729305E-8
         2543.545     1.846934E-8
         2545.813     1.964946E-8
         2548.084     2.083400E-8
         2550.358     2.218477E-8
         2552.635     2.440521E-8
         2554.911     2.663250E-8
         2557.191     2.886995E-8
         2559.471     3.111322E-8
         2561.755     4.029168E-8
         2564.042     5.159942E-8
         2566.329     6.294508E-8
         2568.619     7.434059E-8
         2570.908     7.942168E-8
         2573.205     7.484346E-8
           2575.5     7.025251E-8
         2577.797     6.564160E-8
         2580.097     6.073282E-8
         2582.399     4.954101E-8
         2584.704     3.829557E-8
          2587.01     2.700619E-8
         2589.318     1.567664E-8
         2591.629     1.278802E-8
          2593.94     1.345272E-8
         2596.254     1.411983E-8
         2598.573     1.479033E-8
         2600.889     1.502393E-8
          2603.21     1.455233E-8
         2605.532     1.407893E-8
         2607.856     1.360340E-8
         2610.185     1.379229E-8
         2612.512     2.172661E-8
         2614.843     2.970211E-8
         2617.177     3.771035E-8
          2619.51     4.574112E-8
         2621.849     4.304620E-8
         2624.188     3.748403E-8
         2626.528     3.189871E-8
         2628.873     2.628623E-8
         2631.217     2.309673E-8
         2633.566     2.216102E-8
         2635.916     2.122115E-8
         2638.267     2.027765E-8
          2640.62     1.902674E-8
         2642.977     1.692010E-8
         2645.334     1.480567E-8
         2647.695     1.268110E-8
         2650.057     1.064003E-8
         2652.422     1.229557E-8
         2654.788     1.395673E-8
         2657.157     1.562569E-8
         2659.526     1.729935E-8
         2661.899     3.506993E-8
         2664.275     5.694118E-8
         2666.652     7.888985E-8
         2669.031     1.009404E-7
         2671.412     9.601063E-8
         2673.796     7.243953E-8
         2676.181     4.878606E-8
          2678.57     2.501916E-8
          2680.96     2.117075E-8
          2683.35     4.716997E-8
         2685.746     7.332222E-8
          2688.14     9.953378E-8
          2690.54     1.183618E-7
         2692.941     1.112740E-7
         2695.343     1.041589E-7
         2697.748     9.700945E-8
         2700.153     8.943582E-8
         2702.563     7.585732E-8
         2704.975     6.218090E-8
         2707.387     4.841330E-8
         2709.804     3.453615E-8
         2712.222     3.178515E-8
         2714.642     3.000904E-8
         2717.063     2.821982E-8
         2719.486     2.641709E-8
         2721.915     2.673423E-8
         2724.343     2.762721E-8
         2726.772     2.852605E-8
         2729.205     2.943077E-8
          2731.64     3.101315E-8
         2734.078     3.293299E-8
         2736.517     3.486473E-8
         2738.958     3.680937E-8
         2741.402     3.461918E-8
         2743.849     2.931666E-8
         2746.296     2.397969E-8
         2748.747     1.860128E-8
         2751.198     1.864247E-8
         2753.653     2.439496E-8
         2756.111     3.016120E-8
         2758.569     3.593776E-8
         2761.031     3.672590E-8
         2763.495     3.055599E-8
         2765.958     2.437880E-8
         2768.427     1.817961E-8
         2770.898     1.462123E-8
         2773.369     1.571413E-8
         2775.844     1.681022E-8
          2778.32     1.790824E-8
         2780.799     1.933884E-8
          2783.28     2.146883E-8
         2785.764     2.360394E-8
         2788.249     2.574250E-8
         2790.736     2.772923E-8
         2793.227     2.934748E-8
          2795.72     3.096937E-8
         2798.213     3.259397E-8
         2800.709     3.791108E-8
         2803.209     5.255575E-8
         2805.709     6.722446E-8
         2808.213     8.193595E-8
         2810.718     8.698582E-8
         2813.226     6.788839E-8
         2815.736     4.876036E-8
         2818.247     2.959054E-8
         2820.764     2.033717E-8
         2823.278     3.397967E-8
         2825.798     4.766854E-8
          2828.32     6.138661E-8
         2830.843     7.285976E-8
         2833.369     7.983713E-8
         2835.898     8.682984E-8
         2838.426     9.382843E-8
         2840.959     8.993447E-8
         2843.495     6.809275E-8
         2846.031     4.621887E-8
         2848.571     2.428325E-8
         2851.112     1.510276E-8
         2853.655     2.236177E-8
         2856.202     2.963965E-8
         2858.751     3.693228E-8
         2861.301     3.680699E-8
         2863.853     2.953570E-8
         2866.407     2.224923E-8
         2868.965     1.494337E-8
         2871.526     1.417618E-8
         2874.087     1.785477E-8
         2876.652     2.154331E-8
         2879.218     2.523653E-8
         2881.788     2.404509E-8
         2884.358     2.070880E-8
         2886.931     1.736575E-8
         2889.507     1.401436E-8
         2892.084     1.580182E-8
         2894.666     1.881235E-8
         2897.248     2.182711E-8
         2899.832     2.484724E-8
         2902.421     2.187387E-8
          2905.01     1.849294E-8
         2907.601     1.511751E-8
         2910.198     1.204389E-8
          2912.79     1.261639E-8
         2915.392     1.318923E-8
         2917.992     1.376025E-8
         2920.594     1.435592E-8
         2923.203     1.503829E-8
         2925.807     1.571771E-8
          2928.42     1.639740E-8
         2931.033     1.801224E-8
         2933.646     2.105269E-8
         2936.266     2.409272E-8
         2938.885     2.712294E-8
         2941.506     3.050993E-8
         2944.131     3.416075E-8
         2946.757     3.780204E-8
         2949.387     4.143815E-8
         2952.018     3.632407E-8
         2954.653     2.856357E-8
          2957.29     2.081841E-8
         2959.926     1.309797E-8
         2962.567     2.815577E-8
          2965.21     4.383213E-8
         2967.856     5.948351E-8
         2970.505     6.988250E-8
         2973.155     5.812111E-8
         2975.808     4.637640E-8
         2978.461     3.467120E-8
         2981.121     2.719674E-8
          2983.78     2.554392E-8
         2986.441     2.389452E-8
         2989.104     2.224869E-8
         2991.772     2.557614E-8
         2994.442     3.140494E-8
         2997.113     3.721747E-8
         2999.788     4.302053E-8
         3002.464     3.680359E-8
         3005.142     2.957005E-8
         3007.826     2.234356E-8
         3010.507     1.677312E-8
         3013.194     1.818725E-8
         3015.883     1.959798E-8
         3018.573     2.100440E-8
         3021.267     2.157345E-8
          3023.96     2.120165E-8
          3026.66     2.082990E-8
          3029.36     2.045933E-8
         3032.062     3.489940E-8
          3034.77     5.392044E-8
         3037.475     7.286040E-8
         3040.186     8.901507E-8
         3042.897     6.770942E-8
         3045.612     4.645425E-8
         3048.332     2.522511E-8
         3051.051     1.279792E-8
         3053.772     1.424314E-8
         3056.497     1.568561E-8
         3059.222     1.712232E-8
         3061.954     3.547048E-8
         3064.685     6.046862E-8
         3067.418     8.540347E-8
         3070.156     1.079070E-7
         3072.896     9.102279E-8
         3075.637     7.419144E-8
          3078.38     5.740570E-8
         3081.126     4.745539E-8
         3083.877     4.729455E-8
         3086.628     4.713394E-8
         3089.381     4.697339E-8
         3092.137     6.104521E-8
         3094.895     7.919625E-8
         3097.659     9.731873E-8
         3100.422     1.083461E-7
         3103.187     8.028183E-8
         3105.955     5.210833E-8
         3108.729     2.379034E-8
         3111.501     1.788303E-8
