#  Table pcf702wsys.tab  Mon 12:21:19 02-Jun-97

#      WAVELENGTH      THROUGHPUT
#       angstroms                

            1850.     3.833629E-8
         1851.651     8.681091E-8
         1853.301     1.357109E-7
         1854.956     1.851803E-7
         1856.611     2.350615E-7
         1858.267     2.854260E-7
         1859.925     3.363063E-7
         1861.584     3.064753E-7
         1863.246     2.724722E-7
         1864.909     2.381228E-7
         1866.572     2.034507E-7
         1868.237     1.684291E-7
         1869.904     1.330379E-7
         1871.573     1.638775E-7
         1873.242     1.990782E-7
         1874.913     2.346189E-7
         1876.585     2.705039E-7
          1878.26     3.067616E-7
         1879.937     3.432325E-7
         1881.613     3.321111E-7
         1883.292     3.189993E-7
         1884.973     3.057590E-7
         1886.654     2.924050E-7
         1888.338     2.789207E-7
         1890.023     2.654760E-7
         1891.709     2.637098E-7
         1893.396     2.619211E-7
         1895.086     2.601088E-7
         1896.775     2.582763E-7
         1898.469     2.564176E-7
         1900.163     2.518767E-7
         1901.857     2.222883E-7
         1903.555     1.923992E-7
         1905.254     1.622444E-7
         1906.953     1.318451E-7
         1908.655     1.011610E-7
         1910.357     7.414752E-8
         1912.061     6.172767E-8
         1913.768     4.919117E-8
         1915.476     3.654388E-8
         1917.184     2.379364E-8
         1918.894     1.093197E-8
         1920.606     7.874525E-9
          1922.32     2.298841E-8
         1924.035     3.823278E-8
         1925.752     5.360038E-8
          1927.47     6.910800E-8
         1929.189     8.473957E-8
          1930.91     8.682360E-8
         1932.634     7.667519E-8
         1934.358     6.643651E-8
         1936.084     5.611385E-8
         1937.811     4.569896E-8
          1939.54     3.518634E-8
          1941.27     2.868705E-8
         1943.003     2.361898E-8
         1944.737     1.850602E-8
          1946.47     1.335457E-8
         1948.207     8.151785E-9
         1949.947     2.900703E-9
         1951.685     4.004209E-9
         1953.427     5.320306E-9
         1955.171     6.647648E-9
         1956.913     7.984665E-9
          1958.66     9.334674E-9
         1960.408     1.027439E-8
         1962.157     9.830383E-9
         1963.908     9.381962E-9
         1965.658     8.929965E-9
         1967.413     8.473266E-9
         1969.169     8.012361E-9
         1970.925     1.236252E-8
         1972.684     2.110323E-8
         1974.444     2.991359E-8
         1976.205     3.879925E-8
         1977.969     4.777105E-8
         1979.734     5.680811E-8
           1981.5     5.958276E-8
         1983.268     6.125008E-8
         1985.037     6.292912E-8
         1986.809     6.462179E-8
         1988.581     6.632614E-8
         1990.355     6.544923E-8
         1992.131     5.415946E-8
         1993.908     4.277161E-8
         1995.688     3.127117E-8
         1997.467     1.969338E-8
          1999.25     8.002273E-9
         2001.034     3.064378E-9
         2002.818     3.078174E-9
         2004.606     3.092034E-9
         2006.396     3.105924E-9
         2008.184     3.119834E-9
         2009.976     3.133799E-9
         2011.769     3.500099E-9
         2013.565     3.874849E-9
         2015.362     4.253197E-9
         2017.158     4.634666E-9
         2018.958     5.020207E-9
          2020.76     5.773753E-9
         2022.563     7.035466E-9
         2024.368     8.310134E-9
         2026.173     9.596087E-9
         2027.982     1.089513E-8
         2029.791     1.220566E-8
         2031.602     2.231570E-8
         2033.414     3.367074E-8
         2035.228     4.513422E-8
         2037.044     5.671374E-8
         2038.861     6.839580E-8
         2040.681     7.095279E-8
         2042.502     5.799540E-8
         2044.324     4.491993E-8
         2046.147     3.171974E-8
         2047.974     1.838439E-8
           2049.8     4.930223E-9
          2051.63     4.040787E-9
         2053.461     4.707226E-9
         2055.291     5.379007E-9
         2057.125     6.057685E-9
         2058.961     6.742572E-9
         2060.798     7.022817E-9
         2062.637     6.768349E-9
         2064.477     6.511514E-9
         2066.318     6.252163E-9
         2068.164     5.989937E-9
         2070.007     5.725238E-9
         2071.855     5.356364E-9
         2073.704     4.984055E-9
         2075.553     4.608490E-9
         2077.405     4.229459E-9
         2079.259     3.846591E-9
         2081.113     5.493053E-9
         2082.971     8.515808E-9
         2084.829     1.156308E-8
         2086.688     1.463658E-8
          2088.55     1.773886E-8
         2090.414     2.179365E-8
         2092.279     2.913346E-8
         2094.145     3.653384E-8
         2096.014     4.400285E-8
         2097.885     5.153404E-8
         2099.756     5.912365E-8
          2101.63     5.705766E-8
         2103.503     5.351407E-8
         2105.381     4.993596E-8
          2107.26     4.632647E-8
         2109.139     4.268824E-8
         2111.022     3.769930E-8
         2112.906     3.155424E-8
         2114.789     2.536693E-8
         2116.677     1.912110E-8
         2118.564     1.282860E-8
         2120.455     7.837461E-9
         2122.348     7.101649E-9
         2124.241     6.360571E-9
         2126.135     5.613536E-9
         2128.033     4.860226E-9
         2129.932     4.100900E-9
         2131.832     4.936349E-9
         2133.734     5.837350E-9
         2135.637     6.744827E-9
         2137.544     7.660097E-9
          2139.45     8.582784E-9
         2141.359     1.204015E-8
          2143.27     1.655317E-8
         2145.182     2.109809E-8
         2147.096     2.567973E-8
         2149.011     3.029297E-8
         2150.929     3.118503E-8
         2152.848     2.806946E-8
         2154.768     2.493089E-8
         2156.692     2.176519E-8
         2158.615     1.858231E-8
         2160.541     1.563987E-8
         2162.469     1.336615E-8
         2164.397     1.107961E-8
          2166.33     8.772939E-9
         2168.263     6.451567E-9
         2170.196     4.703662E-9
         2172.133     8.159780E-9
          2174.07     1.163517E-8
         2176.011     1.513519E-8
         2177.953     1.865730E-8
         2179.895     2.219891E-8
          2181.84     1.935264E-8
         2183.787     1.612123E-8
         2185.735     1.287228E-8
         2187.686     9.602467E-9
         2189.637     6.315395E-9
          2191.59     5.731342E-9
         2193.546     5.768088E-9
         2195.503     5.804983E-9
         2197.462     5.842016E-9
         2199.423     5.879231E-9
         2201.385     5.732591E-9
         2203.348     5.505620E-9
         2205.315     5.274152E-9
         2207.283     5.038332E-9
         2209.252     4.798287E-9
         2211.222     5.967302E-9
         2213.196     8.028477E-9
          2215.17     1.011996E-8
         2217.147     1.224502E-8
         2219.125     1.440227E-8
         2221.104     1.707093E-8
         2223.086     2.016796E-8
         2225.071     2.331225E-8
         2227.055     2.649620E-8
         2229.042     2.972979E-8
         2231.031     2.887852E-8
         2233.021     2.414528E-8
         2235.015     1.933504E-8
         2237.008     1.445924E-8
         2239.003     9.511087E-9
         2241.002     7.505871E-9
         2242.999     8.495271E-9
         2245.002     9.499744E-9
         2247.005     1.051643E-8
         2249.009     1.154660E-8
         2251.016     1.241375E-8
         2253.024     1.311764E-8
         2255.033     1.383010E-8
         2257.046     1.455169E-8
         2259.061     1.528192E-8
         2261.075     1.761637E-8
         2263.092     2.138384E-8
         2265.112     2.520154E-8
         2267.134     2.906739E-8
         2269.156     3.297880E-8
         2271.181     3.368226E-8
         2273.207     3.204871E-8
         2275.234     3.039266E-8
         2277.266     2.871199E-8
         2279.296     2.701207E-8
          2281.33     2.661456E-8
         2283.366     2.691777E-8
         2285.402     2.722280E-8
         2287.441     2.753039E-8
         2289.483     2.784015E-8
         2291.525     2.521611E-8
          2293.57     2.155551E-8
         2295.615     1.785532E-8
         2297.663     1.410996E-8
         2299.715     1.031608E-8
         2301.765     9.205836E-9
          2303.82     8.522688E-9
         2305.876     7.830813E-9
         2307.932     7.130593E-9
         2309.992     6.421067E-9
         2312.051     6.736349E-9
         2314.116     7.059576E-9
          2316.18     7.385899E-9
         2318.246     7.715635E-9
         2320.315     8.059803E-9
         2322.385     8.467211E-9
         2324.457     8.879180E-9
         2326.531     9.295193E-9
         2328.606     9.715564E-9
         2330.685     9.807597E-9
         2332.764     9.218970E-9
         2334.845     8.623191E-9
         2336.927     8.020371E-9
         2339.012     7.410406E-9
         2341.101     7.235734E-9
         2343.188     7.458822E-9
         2345.279     7.684067E-9
         2347.372     7.911584E-9
         2349.467     8.141225E-9
         2351.562     8.466663E-9
         2353.661     8.827702E-9
         2355.759     9.191731E-9
         2357.862     9.559744E-9
         2359.966     9.931244E-9
         2362.071     9.427040E-9
         2364.179     8.902309E-9
         2366.288     8.372139E-9
         2368.398     7.836137E-9
         2370.512     7.616038E-9
         2372.628     8.406607E-9
         2374.744     9.204329E-9
         2376.863     1.001024E-8
         2378.983     1.082344E-8
         2381.105     1.239320E-8
          2383.23     1.467215E-8
         2385.357     1.697276E-8
         2387.485     1.929406E-8
         2389.615     2.163717E-8
         2391.747     2.695980E-8
         2393.881     3.298388E-8
         2396.017     3.906788E-8
         2398.154     4.520433E-8
         2400.293     5.057813E-8
         2402.435     5.081067E-8
          2404.58     5.104386E-8
         2406.724     5.127747E-8
         2408.872     5.151186E-8
         2411.022     4.865037E-8
         2413.171     4.233668E-8
         2415.326     3.595333E-8
         2417.479     2.952395E-8
         2419.637     2.302724E-8
         2421.796     1.983056E-8
         2423.957     1.728856E-8
          2426.12     1.472238E-8
         2428.284     1.213512E-8
         2430.451     1.085574E-8
         2432.619     1.465867E-8
         2434.789     1.849331E-8
         2436.962     2.236282E-8
         2439.136     2.626430E-8
         2441.312     2.581951E-8
          2443.49     2.247720E-8
          2445.67     1.910450E-8
         2447.853     1.570277E-8
         2450.036     1.235757E-8
         2452.222     1.387941E-8
         2454.409     1.541341E-8
           2456.6     1.696066E-8
         2458.792     1.851999E-8
         2460.985     1.887602E-8
          2463.18     1.773828E-8
         2465.379     1.659021E-8
         2467.579     1.543266E-8
         2469.778     1.426691E-8
         2471.983     1.487495E-8
          2474.19     1.568841E-8
         2476.396     1.650653E-8
         2478.606     1.733178E-8
         2480.817     1.717853E-8
         2483.029     1.533649E-8
         2485.247     1.347723E-8
         2487.462     1.160662E-8
         2489.682     9.718861E-9
         2491.904     9.504415E-9
         2494.125     9.571075E-9
         2496.353     9.638182E-9
         2498.579     9.705529E-9
         2500.808     9.751381E-9
          2503.04     9.758859E-9
         2505.272     9.766192E-9
         2507.509     9.773388E-9
         2509.745     9.780439E-9
         2511.985     1.223035E-8
         2514.225     1.501248E-8
         2516.468     1.781606E-8
         2518.714     2.064241E-8
         2520.962     2.125810E-8
          2523.21     1.888220E-8
         2525.462     1.648610E-8
         2527.715     1.407286E-8
         2529.971     1.163928E-8
         2532.229     1.274473E-8
         2534.486     1.390402E-8
         2536.748     1.507334E-8
          2539.01     1.622416E-8
         2541.277     1.614955E-8
         2543.545     1.512060E-8
         2545.813     1.408793E-8
         2548.084     1.305099E-8
         2550.358     1.213780E-8
         2552.635     1.191006E-8
         2554.911     1.168145E-8
         2557.191     1.145161E-8
         2559.471     1.122100E-8
         2561.755     1.612884E-8
         2564.042     2.260964E-8
         2566.329     2.911226E-8
         2568.619     3.564356E-8
         2570.908     3.948783E-8
         2573.205     3.922479E-8
           2575.5     3.896058E-8
         2577.797     3.869479E-8
         2580.097     3.816619E-8
         2582.399     3.171824E-8
         2584.704     2.523934E-8
          2587.01     1.873510E-8
         2589.318     1.220766E-8
         2591.629     1.265550E-8
          2593.94     1.604445E-8
         2596.254     1.944637E-8
         2598.573     2.286625E-8
         2600.889     2.714109E-8
          2603.21     3.280477E-8
         2605.532     3.848725E-8
         2607.856     4.419259E-8
         2610.185     4.911799E-8
         2612.512     4.465764E-8
         2614.843     4.017339E-8
         2617.177     3.566996E-8
          2619.51     3.115311E-8
         2621.849     3.548721E-8
         2624.188     4.218984E-8
         2626.528     4.891919E-8
         2628.873     5.568009E-8
         2631.217     5.373715E-8
         2633.566     4.367589E-8
         2635.916     3.357274E-8
         2638.267     2.343313E-8
          2640.62     1.651348E-8
         2642.977     1.870281E-8
         2645.334     2.089971E-8
         2647.695     2.310666E-8
         2650.057     2.522498E-8
         2652.422     2.344647E-8
         2654.788     2.166141E-8
         2657.157     1.986744E-8
         2659.526     1.806792E-8
         2661.899     1.928970E-8
         2664.275     2.127492E-8
         2666.652     2.326694E-8
         2669.031     2.526799E-8
         2671.412     2.556885E-8
         2673.796     2.469637E-8
         2676.181     2.382053E-8
          2678.57     2.294019E-8
          2680.96     2.503775E-8
          2683.35     3.158917E-8
         2685.746     3.817887E-8
          2688.14     4.478323E-8
          2690.54     4.784457E-8
         2692.941     3.855656E-8
         2695.343     2.923437E-8
         2697.748     1.986870E-8
         2700.153     1.144842E-8
         2702.563     1.735156E-8
         2704.975     2.329632E-8
         2707.387     2.927974E-8
         2709.804     3.530982E-8
         2712.222     3.625955E-8
         2714.642     3.676144E-8
         2717.063     3.726618E-8
         2719.486     3.777387E-8
         2721.915     3.339572E-8
         2724.343     2.767553E-8
         2726.772     2.191388E-8
         2729.205     1.611068E-8
          2731.64     1.379181E-8
         2734.078     1.317445E-8
         2736.517     1.255283E-8
         2738.958     1.192662E-8
         2741.402     1.380071E-8
         2743.849     1.755736E-8
         2746.296     2.133769E-8
         2748.747     2.514668E-8
         2751.198     2.821321E-8
         2753.653     3.049287E-8
         2756.111     3.277796E-8
         2758.569     3.506712E-8
         2761.031     3.387972E-8
         2763.495     2.784656E-8
         2765.958     2.180629E-8
         2768.427     1.574451E-8
         2770.898     1.189679E-8
         2773.369     1.195102E-8
         2775.844     1.200539E-8
          2778.32     1.205986E-8
         2780.799     1.246554E-8
          2783.28     1.361237E-8
         2785.764     1.476197E-8
         2788.249     1.591342E-8
         2790.736     1.666808E-8
         2793.227     1.647240E-8
          2795.72     1.627627E-8
         2798.213     1.607980E-8
         2800.709     1.697284E-8
         2803.209     2.062008E-8
         2805.709     2.427329E-8
         2808.213     2.793715E-8
         2810.718     3.163126E-8
         2813.226     3.539737E-8
         2815.736     3.916949E-8
         2818.247     4.294980E-8
         2820.764     4.442108E-8
         2823.278     4.056629E-8
         2825.798     3.669838E-8
          2828.32     3.282218E-8
         2830.843     3.024850E-8
         2833.369     3.028168E-8
         2835.898     3.031490E-8
         2838.426     3.034814E-8
         2840.959     3.106570E-8
         2843.495     3.290904E-8
         2846.031     3.475509E-8
         2848.571     3.660632E-8
         2851.112     3.483681E-8
         2853.655     2.839815E-8
         2856.202     2.194272E-8
         2858.751     1.547421E-8
         2861.301     1.370204E-8
         2863.853     1.645297E-8
         2866.407     1.920963E-8
         2868.965     2.197361E-8
         2871.526     2.543861E-8
         2874.087     2.938000E-8
         2876.652     3.333204E-8
         2879.218     3.728909E-8
         2881.788     3.484691E-8
         2884.358     2.959473E-8
         2886.931     2.433193E-8
         2889.507     1.905598E-8
         2892.084     2.062463E-8
         2894.666     2.382060E-8
         2897.248     2.702106E-8
         2899.832     3.022722E-8
         2902.421     3.156238E-8
          2905.01     3.276301E-8
         2907.601     3.396147E-8
         2910.198     3.470089E-8
          2912.79     2.989325E-8
         2915.392     2.508202E-8
         2917.992     2.028534E-8
         2920.594     1.655901E-8
         2923.203     1.642351E-8
         2925.807     1.628850E-8
          2928.42     1.615332E-8
         2931.033     2.121281E-8
         2933.646     3.418842E-8
         2936.266     4.716259E-8
         2938.885     6.009522E-8
         2941.506     6.402922E-8
         2944.131     6.131212E-8
         2946.757     5.860162E-8
         2949.387     5.589449E-8
         2952.018     4.828663E-8
         2954.653     3.920010E-8
          2957.29     3.013150E-8
         2959.926     2.109182E-8
         2962.567     1.851094E-8
          2965.21     1.612289E-8
         2967.856     1.373850E-8
         2970.505     1.200419E-8
         2973.155     1.301064E-8
         2975.808     1.401554E-8
         2978.461     1.501695E-8
         2981.121     1.595302E-8
          2983.78     1.679672E-8
         2986.441     1.763848E-8
         2989.104     1.847823E-8
         2991.772     1.801868E-8
         2994.442     1.690487E-8
         2997.113     1.579403E-8
         2999.788     1.468484E-8
         3002.464     1.384067E-8
         3005.142     1.302080E-8
         3007.826     1.220166E-8
         3010.507     1.185464E-8
         3013.194     1.351988E-8
         3015.883     1.518119E-8
         3018.573     1.683748E-8
         3021.267     1.860005E-8
          3023.96     2.047891E-8
          3026.66     2.235655E-8
          3029.36     2.422735E-8
         3032.062     2.496968E-8
          3034.77     2.536210E-8
         3037.475     2.575266E-8
         3040.186     2.583779E-8
         3042.897     2.179254E-8
         3045.612     1.775680E-8
         3048.332     1.372594E-8
         3051.051     1.125265E-8
         3053.772     1.123330E-8
         3056.497     1.121389E-8
         3059.222     1.119448E-8
         3061.954     1.573314E-8
         3064.685     2.206561E-8
         3067.418     2.838200E-8
         3070.156     3.457619E-8
         3072.896     3.895481E-8
         3075.637     4.331920E-8
          3078.38     4.767129E-8
         3081.126     4.578763E-8
         3083.877     3.495012E-8
         3086.628     2.415422E-8
         3089.381     1.338852E-8
         3092.137     1.605125E-8
         3094.895     2.258414E-8
         3097.659     2.910681E-8
         3100.422     3.373121E-8
         3103.187     2.793603E-8
         3105.955     2.211825E-8
         3108.729     1.627060E-8
         3111.501     1.320088E-8
