#  Table wf2f380wsys.tab  Mon 12:21:41 02-Jun-97

#      WAVELENGTH      THROUGHPUT
#       angstroms                

            1850.     1.275583E-6
         1851.651     1.077280E-6
         1853.301     8.772486E-7
         1854.956     6.748992E-7
         1856.611     4.708785E-7
         1858.267     2.648942E-7
         1859.925     5.681346E-8
         1861.584     9.838648E-8
         1863.246     1.523092E-7
         1864.909     2.067481E-7
         1866.572     2.616654E-7
         1868.237     3.171033E-7
         1869.904     3.730933E-7
         1871.573     3.928054E-7
         1873.242     4.104328E-7
         1874.913     4.282163E-7
         1876.585     4.461578E-7
          1878.26     4.642715E-7
         1879.937     4.823622E-7
         1881.613     4.305341E-7
         1883.292     3.755009E-7
         1884.973     3.199676E-7
         1886.654     2.639973E-7
         1888.338     2.075196E-7
         1890.023     1.514715E-7
         1891.709     1.605895E-7
         1893.396     1.697801E-7
         1895.086     1.790484E-7
         1896.775     1.883777E-7
         1898.469     1.977972E-7
         1900.163     2.076442E-7
         1901.857     2.209309E-7
         1903.555     2.343407E-7
         1905.254     2.478576E-7
         1906.953     2.614722E-7
         1908.655     2.752023E-7
         1910.357     2.808857E-7
         1912.061     2.557857E-7
         1913.768     2.304530E-7
         1915.476     2.048994E-7
         1917.184     1.791410E-7
         1918.894     1.531607E-7
         1920.606     1.321925E-7
          1922.32     1.206351E-7
         1924.035     1.089772E-7
         1925.752     9.722434E-8
          1927.47     8.536373E-8
         1929.189     7.340771E-8
          1930.91     6.794237E-8
         1932.634     6.832769E-8
         1934.358     6.871439E-8
         1936.084     6.910223E-8
         1937.811     6.949150E-8
          1939.54     6.988242E-8
          1941.27     8.175778E-8
         1943.003     9.791907E-8
         1944.737     1.142145E-7
          1946.47     1.306234E-7
         1948.207     1.471867E-7
         1949.947     1.638946E-7
         1951.685     1.426453E-7
         1953.427     1.199842E-7
         1955.171     9.712989E-8
         1956.913     7.410938E-8
          1958.66     5.086573E-8
         1960.408     3.190018E-8
         1962.157     2.754510E-8
         1963.908     2.314987E-8
         1965.658     1.872269E-8
         1967.413     1.425265E-8
         1969.169     9.744578E-9
         1970.925     8.872346E-9
         1972.684     1.130800E-8
         1974.444     1.376223E-8
         1976.205     1.623661E-8
         1977.969     1.873413E-8
         1979.734     2.124898E-8
           1981.5     2.848341E-8
         1983.268     3.662066E-8
         1985.037     4.482008E-8
         1986.809     5.309090E-8
         1988.581     6.142359E-8
         1990.355     6.731585E-8
         1992.131     6.317845E-8
         1993.908     5.900519E-8
         1995.688     5.479074E-8
         1997.467     5.054805E-8
          1999.25     4.626395E-8
         2001.034     4.275804E-8
         2002.818     3.981578E-8
         2004.606     3.683835E-8
         2006.396     3.383266E-8
         2008.184     3.080092E-8
         2009.976     2.773533E-8
         2011.769     2.676218E-8
         2013.565     2.580687E-8
         2015.362     2.484153E-8
         2017.158     2.386737E-8
         2018.958     2.288195E-8
          2020.76     2.397005E-8
         2022.563     2.793411E-8
         2024.368     3.193769E-8
         2026.173     3.597555E-8
         2027.982     4.005331E-8
         2029.791     4.416592E-8
         2031.602     4.676026E-8
         2033.414     4.917166E-8
         2035.228     5.160425E-8
         2037.044     5.405961E-8
         2038.861     5.653487E-8
         2040.681     5.594369E-8
         2042.502     5.015257E-8
         2044.324     4.430952E-8
         2046.147     3.841161E-8
         2047.974     3.245419E-8
           2049.8     2.644457E-8
          2051.63     2.497413E-8
         2053.461     2.405589E-8
         2055.291     2.312968E-8
         2057.125     2.219337E-8
         2058.961     2.124790E-8
         2060.798     2.197824E-8
         2062.637     2.491993E-8
         2064.477     2.788543E-8
         2066.318     3.087640E-8
         2068.164     3.389695E-8
         2070.007     3.691754E-8
         2071.855     3.463402E-8
         2073.704     3.232982E-8
         2075.553     3.000610E-8
         2077.405     2.766154E-8
         2079.259     2.529386E-8
         2081.113     2.460116E-8
         2082.971     2.503561E-8
         2084.829     2.547291E-8
         2086.688     2.591328E-8
          2088.55     2.635710E-8
         2090.414     2.710651E-8
         2092.279     2.892371E-8
         2094.145     3.075494E-8
         2096.014     3.260216E-8
         2097.885     3.446380E-8
         2099.756     3.633890E-8
          2101.63     3.755612E-8
         2103.503     3.867973E-8
         2105.381     3.981277E-8
          2107.26     4.095430E-8
         2109.139     4.210341E-8
         2111.022     4.321539E-8
         2112.906     4.429628E-8
         2114.789     4.538332E-8
         2116.677     4.647939E-8
         2118.564     4.758236E-8
         2120.455     4.799368E-8
         2122.348     4.619095E-8
         2124.241     4.437532E-8
         2126.135     4.254512E-8
         2128.033     4.069954E-8
         2129.932     3.883925E-8
         2131.832     3.796823E-8
         2133.734     3.712741E-8
         2135.637     3.628010E-8
         2137.544     3.542505E-8
          2139.45     3.457258E-8
         2141.359     3.211261E-8
          2143.27     2.898082E-8
         2145.182     2.582703E-8
         2147.096     2.264792E-8
         2149.011     1.944704E-8
         2150.929     1.699273E-8
         2152.848     1.534706E-8
         2154.768     1.368966E-8
         2156.692     1.201837E-8
         2158.615     1.033844E-8
         2160.541     9.767621E-9
         2162.469     1.207859E-8
         2164.397     1.440167E-8
          2166.33     1.674428E-8
         2168.263     1.910090E-8
         2170.196     2.131911E-8
         2172.133     2.221594E-8
          2174.07     2.311732E-8
         2176.011     2.402466E-8
         2177.953     2.493729E-8
         2179.895     2.585454E-8
          2181.84     2.541895E-8
         2183.787     2.490280E-8
         2185.735     2.438379E-8
         2187.686     2.386141E-8
         2189.637     2.333621E-8
          2191.59     2.474998E-8
         2193.546     2.661706E-8
         2195.503     2.849326E-8
         2197.462     3.037790E-8
         2199.423     3.227337E-8
         2201.385     3.088331E-8
         2203.348     2.808085E-8
         2205.315     2.522788E-8
         2207.283     2.232625E-8
         2209.252     1.937753E-8
         2211.222     1.739073E-8
         2213.196     1.599405E-8
          2215.17     1.457516E-8
         2217.147     1.313183E-8
         2219.125     1.166499E-8
         2221.104     1.055314E-8
         2223.086     9.723378E-9
         2225.071     8.879843E-9
         2227.055     8.024570E-9
         2229.042     7.154874E-9
         2231.031     8.051369E-9
         2233.021     1.062617E-8
         2235.015     1.324023E-8
         2237.008     1.588731E-8
         2239.003     1.857108E-8
         2241.002     2.039500E-8
         2242.999     2.134164E-8
         2245.002     2.230148E-8
         2247.005     2.327178E-8
         2249.009     2.425374E-8
         2251.016     2.427106E-8
         2253.024     2.332819E-8
         2255.033     2.237131E-8
         2257.046     2.139963E-8
         2259.061     2.041378E-8
         2261.075     1.965279E-8
         2263.092     1.909049E-8
         2265.112     1.851945E-8
         2267.134     1.793996E-8
         2269.156     1.735241E-8
         2271.181     1.680354E-8
         2273.207     1.628140E-8
         2275.234     1.575187E-8
         2277.266     1.521428E-8
         2279.296     1.467034E-8
          2281.33     1.588674E-8
         2283.366     1.805837E-8
         2285.402     2.025229E-8
         2287.441     2.247388E-8
         2289.483     2.472033E-8
         2291.525     2.579454E-8
          2293.57     2.647228E-8
         2295.615     2.715561E-8
         2297.663     2.785411E-8
         2299.715     2.856183E-8
         2301.765     2.919347E-8
          2303.82     2.981870E-8
         2305.876     3.044977E-8
         2307.932     3.108633E-8
         2309.992     3.172921E-8
         2312.051     3.366994E-8
         2314.116     3.564009E-8
          2316.18     3.762903E-8
         2318.246     3.963872E-8
         2320.315     4.090338E-8
         2322.385     3.788027E-8
         2324.457     3.481920E-8
         2326.531     3.172400E-8
         2328.606     2.859236E-8
         2330.685     2.621314E-8
         2332.764     2.542987E-8
         2334.845     2.463670E-8
         2336.927     2.383379E-8
         2339.012     2.302101E-8
         2341.101     2.128475E-8
         2343.188     1.870819E-8
         2345.279     1.610282E-8
         2347.372     1.346725E-8
         2349.467     1.080321E-8
         2351.562     1.236306E-8
         2353.661     1.539995E-8
         2355.759     1.846368E-8
         2357.862     2.156260E-8
         2359.966     2.469254E-8
         2362.071     2.483213E-8
         2364.179     2.492213E-8
         2366.288     2.501204E-8
         2368.398     2.510192E-8
         2370.512     2.565015E-8
         2372.628     2.764452E-8
         2374.744     2.965624E-8
         2376.863     3.168789E-8
         2378.983     3.373723E-8
         2381.105     3.598937E-8
          2383.23     3.843400E-8
         2385.357     4.090050E-8
         2387.485     4.338782E-8
         2389.615     4.589715E-8
         2391.747     4.747677E-8
         2393.881     4.885718E-8
         2396.017     5.024970E-8
         2398.154     5.165258E-8
         2400.293     5.282633E-8
         2402.435     5.248634E-8
          2404.58     5.214170E-8
         2406.724     5.179267E-8
         2408.872     5.143881E-8
         2411.022     5.014557E-8
         2413.171     4.780635E-8
         2415.326     4.544104E-8
         2417.479     4.305842E-8
         2419.637     4.065058E-8
         2421.796     4.323216E-8
         2423.957     4.685000E-8
          2426.12     5.049948E-8
         2428.284     5.417615E-8
         2430.451     5.648525E-8
         2432.619     5.346159E-8
         2434.789     5.041186E-8
         2436.962     4.733356E-8
         2439.136     4.422902E-8
         2441.312     3.940984E-8
          2443.49     3.343448E-8
          2445.67     2.740650E-8
         2447.853     2.132836E-8
         2450.036     1.535915E-8
         2452.222     1.845463E-8
         2454.409     2.157432E-8
           2456.6     2.472039E-8
         2458.792     2.789050E-8
         2460.985     2.906574E-8
          2463.18     2.776478E-8
         2465.379     2.645220E-8
         2467.579     2.512897E-8
         2469.778     2.379655E-8
         2471.983     2.334193E-8
          2474.19     2.298312E-8
         2476.396     2.262171E-8
         2478.606     2.225663E-8
         2480.817     2.252367E-8
         2483.029     2.388103E-8
         2485.247     2.525003E-8
         2487.462     2.662632E-8
         2489.682     2.801417E-8
         2491.904     2.956895E-8
         2494.125     3.115906E-8
         2496.353     3.276354E-8
         2498.579     3.437749E-8
         2500.808     3.459141E-8
          2503.04     3.231297E-8
         2505.272     3.001837E-8
         2507.509     2.770427E-8
         2509.745     2.537416E-8
         2511.985     2.722678E-8
         2514.225     2.963355E-8
         2516.468     3.205797E-8
         2518.714     3.450114E-8
         2520.962     3.512769E-8
          2523.21     3.329651E-8
         2525.462     3.144988E-8
         2527.715     2.959019E-8
         2529.971     2.771492E-8
         2532.229     2.882461E-8
         2534.486     2.998021E-8
         2536.748     3.114521E-8
          2539.01     3.226564E-8
         2541.277     3.127083E-8
         2543.545     2.862977E-8
         2545.813     2.597983E-8
         2548.084     2.331964E-8
         2550.358     2.123189E-8
         2552.635     2.226776E-8
         2554.911     2.330648E-8
         2557.191     2.434958E-8
         2559.471     2.539504E-8
         2561.755     2.641226E-8
         2564.042     2.742309E-8
         2566.329     2.843682E-8
         2568.619     2.945449E-8
         2570.908     2.971042E-8
         2573.205     2.880098E-8
           2575.5     2.788904E-8
         2577.797     2.697317E-8
         2580.097     2.602878E-8
         2582.399     2.453047E-8
         2584.704     2.302507E-8
          2587.01     2.151392E-8
         2589.318     1.999750E-8
         2591.629     2.078950E-8
          2593.94     2.255536E-8
         2596.254     2.432740E-8
         2598.573     2.610821E-8
         2600.889     2.870108E-8
          2603.21     3.261044E-8
         2605.532     3.653174E-8
         2607.856     4.046778E-8
         2610.185     4.377331E-8
         2612.512     3.954260E-8
         2614.843     3.529023E-8
         2617.177     3.102073E-8
          2619.51     2.673955E-8
         2621.849     2.740214E-8
         2624.188     2.938440E-8
         2626.528     3.137387E-8
         2628.873     3.337195E-8
         2631.217     3.347599E-8
         2633.566     3.181486E-8
         2635.916     3.014689E-8
         2638.267     2.847297E-8
          2640.62     2.708547E-8
         2642.977     2.651329E-8
         2645.334     2.593884E-8
         2647.695     2.536148E-8
         2650.057     2.473837E-8
         2652.422     2.234415E-8
         2654.788     1.994185E-8
         2657.157     1.752829E-8
         2659.526     1.510801E-8
         2661.899     1.488708E-8
         2664.275     1.521852E-8
         2666.652     1.555084E-8
         2669.031     1.588442E-8
         2671.412     1.551189E-8
         2673.796     1.465107E-8
         2676.181     1.378730E-8
          2678.57     1.291944E-8
          2680.96     1.342376E-8
          2683.35     1.598111E-8
         2685.746     1.855268E-8
          2688.14     2.112923E-8
          2690.54     2.415845E-8
         2692.941     2.871826E-8
         2695.343     3.329294E-8
         2697.748     3.788705E-8
         2700.153     4.188067E-8
         2702.563     3.685246E-8
         2704.975     3.178892E-8
         2707.387     2.669255E-8
         2709.804     2.155656E-8
         2712.222     2.293839E-8
         2714.642     2.490861E-8
         2717.063     2.689186E-8
         2719.486     2.888860E-8
         2721.915     3.084331E-8
         2724.343     3.279321E-8
         2726.772     3.475603E-8
         2729.205     3.673183E-8
          2731.64     3.418159E-8
         2734.078     2.940295E-8
         2736.517     2.459368E-8
         2738.958     1.975133E-8
         2741.402     1.696512E-8
         2743.849     1.572120E-8
         2746.296     1.446930E-8
         2748.747     1.320780E-8
         2751.198     1.265439E-8
         2753.653     1.284797E-8
         2756.111     1.304196E-8
         2758.569     1.323624E-8
         2761.031     1.327493E-8
         2763.495     1.309665E-8
         2765.958     1.291818E-8
         2768.427     1.273911E-8
         2770.898     1.318034E-8
         2773.369     1.471043E-8
         2775.844     1.624468E-8
          2778.32     1.778129E-8
         2780.799     2.110072E-8
          2783.28     2.817886E-8
         2785.764     3.527251E-8
         2788.249     4.237609E-8
         2790.736     4.640526E-8
         2793.227     4.307978E-8
          2795.72     3.974746E-8
         2798.213     3.641024E-8
         2800.709     3.507557E-8
         2803.209     3.880955E-8
         2805.709     4.254880E-8
         2808.213     4.629813E-8
         2810.718     4.922385E-8
         2813.226     5.009041E-8
         2815.736     5.095813E-8
         2818.247     5.182751E-8
         2820.764     5.329498E-8
         2823.278     5.612795E-8
         2825.798     5.896989E-8
          2828.32     6.181723E-8
         2830.843     5.987127E-8
         2833.369     4.833962E-8
         2835.898     3.678510E-8
         2838.426     2.522332E-8
         2840.959     2.158819E-8
         2843.495     3.103299E-8
         2846.031     4.048954E-8
         2848.571     4.997062E-8
         2851.112     5.213302E-8
         2853.655     4.486424E-8
         2856.202     3.757815E-8
         2858.751     3.027895E-8
         2861.301     2.870827E-8
         2863.853     3.265330E-8
         2866.407     3.660566E-8
         2868.965     4.056760E-8
         2871.526     4.044122E-8
         2874.087     3.753607E-8
         2876.652     3.462371E-8
         2879.218     3.170830E-8
         2881.788     3.239996E-8
         2884.358     3.467485E-8
         2886.931     3.695381E-8
         2889.507     3.923792E-8
         2892.084     3.995584E-8
         2894.666     4.030366E-8
         2897.248     4.065187E-8
         2899.832     4.100061E-8
         2902.421     4.470682E-8
          2905.01     4.863395E-8
         2907.601     5.255363E-8
         2910.198     5.598206E-8
          2912.79     5.348651E-8
         2915.392     5.098928E-8
         2917.992     4.849979E-8
         2920.594     4.632571E-8
         2923.203     4.520314E-8
         2925.807     4.408523E-8
          2928.42     4.296663E-8
         2931.033     4.444401E-8
         2933.646     4.987583E-8
         2936.266     5.530588E-8
         2938.885     6.071734E-8
         2941.506     5.600054E-8
         2944.131     4.379944E-8
         2946.757     3.163143E-8
         2949.387     1.948197E-8
         2952.018     1.906439E-8
         2954.653     2.219938E-8
          2957.29     2.532740E-8
         2959.926     2.844465E-8
         2962.567     3.929511E-8
          2965.21     5.033874E-8
         2967.856     6.136257E-8
         2970.505     6.997763E-8
         2973.155     6.845973E-8
         2975.808     6.694385E-8
         2978.461     6.543293E-8
         2981.121     6.298815E-8
          2983.78     5.927118E-8
         2986.441     5.556255E-8
         2989.104     5.186261E-8
         2991.772     5.261177E-8
         2994.442     5.560148E-8
         2997.113     5.858195E-8
         2999.788     6.155668E-8
         3002.464     5.062227E-8
         3005.142     3.852125E-8
         3007.826     2.643450E-8
         3010.507     1.795600E-8
         3013.194     2.474681E-8
         3015.883     3.152034E-8
         3018.573     3.827223E-8
         3021.267     4.329463E-8
          3023.96     4.636789E-8
          3026.66     4.943842E-8
          3029.36     5.249696E-8
         3032.062     5.722593E-8
          3034.77     6.246917E-8
         3037.475     6.768855E-8
         3040.186     7.213130E-8
         3042.897     6.614805E-8
         3045.612     6.017985E-8
         3048.332     5.421985E-8
         3051.051     5.225608E-8
         3053.772     5.660085E-8
         3056.497     6.093619E-8
         3059.222     6.525317E-8
         3061.954     6.463955E-8
         3064.685     6.206998E-8
         3067.418     5.950691E-8
         3070.156     5.669333E-8
         3072.896     4.965706E-8
         3075.637     4.264428E-8
          3078.38     3.565196E-8
         3081.126     3.314129E-8
         3083.877     3.705528E-8
         3086.628     4.095288E-8
         3089.381     4.483822E-8
         3092.137     4.749042E-8
         3094.895     4.978078E-8
         3097.659     5.206662E-8
         3100.422     5.548520E-8
         3103.187     6.527115E-8
         3105.955     7.509342E-8
         3108.729     8.496426E-8
         3111.501     8.465754E-8
