#  Table wf2f569wsys.tab  Mon 12:21:47 02-Jun-97

#      WAVELENGTH      THROUGHPUT
#       angstroms                

            1850.     2.949671E-8
         1851.651     2.555317E-8
         1853.301     2.157514E-8
         1854.956     1.755090E-8
         1856.611     1.349330E-8
         1858.267     9.396524E-9
         1859.925     5.257931E-9
         1861.584     2.792895E-7
         1863.246     5.693011E-7
         1864.909     8.620969E-7
         1866.572     1.157473E-6
         1868.237     1.455657E-6
         1869.904     1.756817E-6
         1871.573     1.836234E-6
         1873.242     1.902575E-6
         1874.913     1.969492E-6
         1876.585     2.036993E-6
          1878.26     2.105131E-6
         1879.937     2.173036E-6
         1881.613     1.836260E-6
         1883.292     1.480643E-6
         1884.973     1.121820E-6
         1886.654     7.601967E-7
         1888.338     3.953198E-7
         1890.023     3.239553E-8
         1891.709     2.889009E-8
         1893.396     2.535432E-8
         1895.086     2.178630E-8
         1896.775     1.819243E-8
         1898.469     1.456142E-8
         1900.163     1.118958E-8
         1901.857     1.049855E-8
         1903.555     9.800535E-9
         1905.254     9.096356E-9
         1906.953     8.386506E-9
         1908.655     7.670047E-9
         1910.357     6.987182E-9
         1912.061     6.447233E-9
         1913.768     5.902251E-9
         1915.476     5.352494E-9
         1917.184     4.798304E-9
         1918.894     4.239314E-9
         1920.606     3.309727E-8
          1922.32     1.162143E-7
         1924.035     2.000277E-7
         1925.752     2.844970E-7
          1927.47     3.697145E-7
         1929.189     4.555912E-7
          1930.91     4.551808E-7
         1932.634     3.768675E-7
         1934.358     2.978847E-7
         1936.084     2.182814E-7
         1937.811     1.379941E-7
          1939.54     5.698081E-8
          1941.27     3.437490E-8
         1943.003     3.305864E-8
         1944.737     3.173035E-8
          1946.47     3.039169E-8
         1948.207     2.903934E-8
         1949.947     2.767408E-8
         1951.685     2.462272E-8
         1953.427     2.148808E-8
         1955.171     1.832658E-8
         1956.913     1.514195E-8
          1958.66     1.192632E-8
         1960.408     9.303153E-9
         1962.157     8.703558E-9
         1963.908     8.098302E-9
         1965.658     7.488516E-9
         1967.413     6.872694E-9
         1969.169     6.251501E-9
         1970.925     6.650189E-8
         1972.684     1.822900E-7
         1974.444     2.989708E-7
         1976.205     4.166190E-7
         1977.969     5.353774E-7
         1979.734     6.549691E-7
           1981.5     5.757472E-7
         1983.268     4.601428E-7
         1985.037     3.436291E-7
         1986.809     2.260748E-7
         1988.581     1.076151E-7
         1990.355     2.292046E-8
         1992.131     7.715721E-8
         1993.908     1.318402E-7
         1995.688     1.870388E-7
         1997.467     2.425838E-7
          1999.25     2.986472E-7
         2001.034     2.905816E-7
         2002.818     2.353905E-7
         2004.606     1.795557E-7
         2006.396     1.232069E-7
         2008.184     6.638535E-8
         2009.976     8.945021E-9
         2011.769     1.360057E-8
         2013.565     1.914606E-8
         2015.362     2.474460E-8
         2017.158     3.038912E-8
         2018.958     3.609368E-8
          2020.76     3.947866E-8
         2022.563     3.962741E-8
         2024.368     3.977648E-8
         2026.173     3.992568E-8
         2027.982     4.007521E-8
         2029.791     4.022485E-8
         2031.602     3.659076E-8
         2033.414     3.242668E-8
         2035.228     2.822260E-8
         2037.044     2.397573E-8
         2038.861     1.969105E-8
         2040.681     1.711356E-8
         2042.502     1.745357E-8
         2044.324     1.779605E-8
         2046.147     1.814117E-8
         2047.974     1.848919E-8
           2049.8     1.883968E-8
          2051.63     3.471624E-8
         2053.461     5.264956E-8
         2055.291     7.072406E-8
         2057.125     8.898148E-8
         2058.961     1.074033E-7
         2060.798     1.093329E-7
         2062.637     8.949006E-8
         2064.477     6.947986E-8
         2066.318     4.929109E-8
         2068.164     2.889588E-8
         2070.007     8.438866E-9
         2071.855     9.488722E-9
         2073.704     1.054744E-8
         2075.553     1.161450E-8
         2077.405     1.269049E-8
         2079.259     1.377645E-8
         2081.113     1.318352E-8
         2082.971     1.145543E-8
         2084.829     9.713390E-9
         2086.688     7.956436E-9
          2088.55     6.183112E-9
         2090.414     4.905330E-9
         2092.279     5.412113E-9
         2094.145     5.922865E-9
         2096.014     6.438140E-9
         2097.885     6.957493E-9
         2099.756     7.480661E-9
          2101.63     1.273592E-8
         2103.503     1.873771E-8
         2105.381     2.479390E-8
          2107.26     3.089926E-8
         2109.139     3.704918E-8
         2111.022     3.794933E-8
         2112.906     3.437107E-8
         2114.789     3.076888E-8
         2116.677     2.713333E-8
         2118.564     2.347132E-8
         2120.455     2.258996E-8
         2122.348     3.060400E-8
         2124.241     3.867122E-8
         2126.135     4.679910E-8
         2128.033     5.499102E-8
         2129.932     6.324414E-8
         2131.832     7.031841E-8
         2133.734     7.739744E-8
         2135.637     8.452491E-8
         2137.544     9.171112E-8
          2139.45     9.896119E-8
         2141.359     9.235224E-8
          2143.27     8.003146E-8
         2145.182     6.762465E-8
         2147.096     5.511879E-8
         2149.011     4.252779E-8
         2150.929     3.314045E-8
         2152.848     2.722048E-8
         2154.768     2.125874E-8
         2156.692     1.524740E-8
         2158.615     9.205376E-9
         2160.541     5.817457E-9
         2162.469     9.355542E-9
         2164.397     1.291227E-8
          2166.33     1.649903E-8
         2168.263     2.010734E-8
         2170.196     2.304368E-8
         2172.133     1.985733E-8
          2174.07     1.665375E-8
         2176.011     1.342800E-8
         2177.953     1.018244E-8
         2179.895     6.919445E-9
          2181.84     8.401481E-9
         2183.787     1.016505E-8
         2185.735     1.193756E-8
         2187.686     1.372084E-8
         2189.637     1.551291E-8
          2191.59     2.894446E-8
         2193.546     4.511985E-8
         2195.503     6.137549E-8
         2197.462     7.770554E-8
         2199.423     9.413064E-8
         2201.385     1.124638E-7
         2203.348     1.318300E-7
         2205.315     1.515115E-7
         2207.283     1.714954E-7
         2209.252     1.917704E-7
         2211.222     1.945819E-7
         2213.196     1.864452E-7
          2215.17     1.781701E-7
         2217.147     1.697437E-7
         2219.125     1.611714E-7
         2221.104     1.418707E-7
         2223.086     1.137684E-7
         2225.071     8.521845E-8
         2227.055     5.628986E-8
         2229.042     2.689193E-8
         2231.031     1.722252E-8
         2233.021     2.627968E-8
         2235.015     3.547585E-8
         2237.008     4.478907E-8
         2239.003     5.423224E-8
         2241.002     6.646686E-8
         2242.999     8.150956E-8
         2245.002     9.678115E-8
         2247.005     1.122381E-7
         2249.009     1.278996E-7
         2251.016     1.258470E-7
         2253.024     1.061643E-7
         2255.033     8.621482E-8
         2257.046     6.598253E-8
         2259.061     4.548074E-8
         2261.075     3.318301E-8
         2263.092     2.816720E-8
         2265.112     2.308229E-8
         2267.134     1.793098E-8
         2269.156     1.271681E-8
         2271.181     1.029533E-8
         2273.207     9.903017E-9
         2275.234     9.505285E-9
         2277.266     9.101633E-9
         2279.296     8.693350E-9
          2281.33     8.321791E-9
         2283.366     7.968165E-9
         2285.402     7.610311E-9
         2287.441     7.247354E-9
         2289.483     6.879747E-9
         2291.525     1.041970E-8
          2293.57     1.533797E-8
         2295.615     2.030578E-8
         2297.663     2.534294E-8
         2299.715     3.044455E-8
         2301.765     2.860907E-8
          2303.82     2.561209E-8
         2305.876     2.257827E-8
         2307.932     1.950928E-8
         2309.992     1.640095E-8
         2312.051     1.645818E-8
         2314.116     1.652762E-8
          2316.18     1.659697E-8
         2318.246     1.666630E-8
         2320.315     1.709220E-8
         2322.385     1.951856E-8
         2324.457     2.197301E-8
         2326.531     2.445247E-8
         2328.606     2.695880E-8
         2330.685     2.725376E-8
         2332.764     2.296952E-8
         2334.845     1.863639E-8
         2336.927     1.425518E-8
         2339.012     9.825199E-9
         2341.101     1.079825E-8
         2343.188     1.670196E-8
         2345.279     2.266918E-8
         2347.372     2.870300E-8
         2349.467     3.479952E-8
         2351.562     3.537440E-8
         2353.661     3.403744E-8
         2355.759     3.268701E-8
         2357.862     3.131946E-8
         2359.966     2.993659E-8
         2362.071     2.554584E-8
         2364.179     2.105712E-8
         2366.288     1.652517E-8
         2368.398     1.194670E-8
         2370.512     1.095985E-8
         2372.628     2.141582E-8
         2374.744     3.196703E-8
         2376.863     4.262722E-8
         2378.983     5.338453E-8
         2381.105     6.108623E-8
          2383.23     6.594371E-8
         2385.357     7.084500E-8
         2387.485     7.578803E-8
         2389.615     8.077514E-8
         2391.747     9.718962E-8
         2393.881     1.162642E-7
         2396.017     1.355234E-7
         2398.154     1.549435E-7
         2400.293     1.717283E-7
         2402.435     1.708663E-7
          2404.58     1.699916E-7
         2406.724     1.691045E-7
         2408.872     1.682041E-7
         2411.022     1.555272E-7
         2413.171     1.297269E-7
         2415.326     1.036499E-7
         2417.479     7.739281E-8
         2419.637     5.086870E-8
         2421.796     4.031148E-8
         2423.957     3.295552E-8
          2426.12     2.553195E-8
         2428.284     1.804977E-8
         2430.451     1.304700E-8
         2432.619     1.774344E-8
         2434.789     2.247787E-8
         2436.962     2.725418E-8
         2439.136     3.206879E-8
         2441.312     3.083156E-8
          2443.49     2.555962E-8
          2445.67     2.024134E-8
         2447.853     1.487891E-8
         2450.036     1.012420E-8
         2452.222     4.369595E-8
         2454.409     7.753363E-8
           2456.6     1.116611E-7
         2458.792     1.460526E-7
         2460.985     1.500470E-7
          2463.18     1.163258E-7
         2465.379     8.231628E-8
         2467.579     4.804387E-8
         2469.778     1.354616E-8
         2471.983     1.313629E-8
          2474.19     1.658773E-8
         2476.396     2.005919E-8
         2478.606     2.356110E-8
         2480.817     2.492039E-8
         2483.029     2.257547E-8
         2485.247     2.020916E-8
         2487.462     1.782897E-8
         2489.682     1.542752E-8
         2491.904     3.822006E-8
         2494.125     6.537420E-8
         2496.353     9.278270E-8
         2498.579     1.203622E-7
         2500.808     1.278849E-7
          2503.04     9.967195E-8
         2505.272     7.126464E-8
         2507.509     4.262185E-8
         2509.745     1.378664E-8
         2511.985     3.204641E-8
         2514.225     5.653523E-8
         2516.468     8.120830E-8
         2518.714     1.060771E-7
         2520.962     1.226020E-7
          2523.21     1.277922E-7
         2525.462     1.330219E-7
         2527.715     1.382846E-7
         2529.971     1.435870E-7
         2532.229     1.145134E-7
         2534.486     8.480233E-8
         2536.748     5.483338E-8
          2539.01     2.462100E-8
         2541.277     3.188526E-8
         2543.545     6.840754E-8
         2545.813     1.050469E-7
         2548.084     1.418224E-7
         2550.358     1.685259E-7
         2552.635     1.404878E-7
         2554.911     1.123637E-7
         2557.191     8.411174E-8
         2559.471     5.578698E-8
         2561.755     5.395386E-8
         2564.042     6.015987E-8
         2566.329     6.638497E-8
         2568.619     7.263566E-8
         2570.908     7.796152E-8
         2573.205     8.188234E-8
           2575.5     8.581140E-8
         2577.797     8.975484E-8
         2580.097     9.285634E-8
         2582.399     7.653757E-8
         2584.704     6.014421E-8
          2587.01     4.369042E-8
         2589.318     2.718174E-8
         2591.629     2.754081E-8
          2593.94     3.500848E-8
         2596.254     4.250303E-8
         2598.573     5.003542E-8
         2600.889     5.240586E-8
          2603.21     4.644575E-8
         2605.532     4.046620E-8
         2607.856     3.446292E-8
         2610.185     2.863021E-8
         2612.512     2.512001E-8
         2614.843     2.159196E-8
         2617.177     1.804979E-8
          2619.51     1.449803E-8
         2621.849     1.334870E-8
         2624.188     1.283872E-8
         2626.528     1.232661E-8
         2628.873     1.181201E-8
         2631.217     1.239195E-8
         2633.566     1.399295E-8
         2635.916     1.559994E-8
         2638.267     1.721205E-8
          2640.62     1.817532E-8
         2642.977     1.730770E-8
         2645.334     1.643695E-8
         2647.695     1.556210E-8
         2650.057     1.534181E-8
         2652.422     4.184741E-8
         2654.788     6.843842E-8
         2657.157     9.514996E-8
         2659.526     1.219319E-7
         2661.899     1.416068E-7
         2664.275     1.595458E-7
         2666.652     1.775421E-7
         2669.031     1.956157E-7
         2671.412     1.810200E-7
         2673.796     1.438416E-7
         2676.181     1.065425E-7
          2678.57     6.907396E-8
          2680.96     5.883833E-8
          2683.35     8.941002E-8
         2685.746     1.201531E-7
          2688.14     1.509572E-7
          2690.54     1.673265E-7
         2692.941     1.333556E-7
         2695.343     9.926888E-8
         2697.748     6.503251E-8
         2700.153     3.421492E-8
         2702.563     5.507129E-8
         2704.975     7.607036E-8
         2707.387     9.720171E-8
         2709.804     1.184935E-7
         2712.222     1.283650E-7
         2714.642     1.372735E-7
         2717.063     1.462404E-7
         2719.486     1.552679E-7
         2721.915     1.342903E-7
         2724.343     1.051001E-7
         2726.772     7.570527E-8
         2729.205     4.610551E-8
          2731.64     4.831793E-8
         2734.078     6.613936E-8
         2736.517     8.407186E-8
         2738.958     1.021246E-7
         2741.402     1.113460E-7
         2743.849     1.139392E-7
         2746.296     1.165463E-7
         2748.747     1.191708E-7
         2751.198     1.224933E-7
         2753.653     1.265475E-7
         2756.111     1.306104E-7
         2758.569     1.346796E-7
         2761.031     1.242822E-7
         2763.495     9.373728E-8
         2765.958     6.316311E-8
         2768.427     3.248674E-8
         2770.898     1.877024E-8
         2773.369     3.488881E-8
         2775.844     5.105132E-8
          2778.32     6.723871E-8
         2780.799     7.641207E-8
          2783.28     7.075117E-8
         2785.764     6.507784E-8
         2788.249     5.939647E-8
         2790.736     5.287097E-8
         2793.227     4.434583E-8
          2795.72     3.580320E-8
         2798.213     2.724808E-8
         2800.709     2.054134E-8
         2803.209     1.852707E-8
         2805.709     1.650990E-8
         2808.213     1.448729E-8
         2810.718     1.391937E-8
         2813.226     1.698563E-8
         2815.736     2.005610E-8
         2818.247     2.313257E-8
         2820.764     2.451329E-8
         2823.278     2.198195E-8
         2825.798     1.944256E-8
          2828.32     1.689830E-8
         2830.843     2.389164E-8
         2833.369     4.995784E-8
         2835.898     7.607564E-8
         2838.426     1.022097E-7
         2840.959     1.088775E-7
         2843.495     8.343169E-8
         2846.031     5.795408E-8
         2848.571     3.241032E-8
         2851.112     2.471693E-8
         2853.655     4.002482E-8
         2856.202     5.536905E-8
         2858.751     7.074090E-8
         2861.301     7.086290E-8
         2863.853     5.629925E-8
         2866.407     4.170851E-8
         2868.965     2.708225E-8
         2871.526     2.370503E-8
         2874.087     2.797408E-8
         2876.652     3.225369E-8
         2879.218     3.653776E-8
         2881.788     3.673370E-8
         2884.358     3.513519E-8
         2886.931     3.353382E-8
         2889.507     3.192880E-8
         2892.084     3.132531E-8
         2894.666     3.095820E-8
         2897.248     3.059065E-8
         2899.832     3.022253E-8
         2902.421     3.529014E-8
          2905.01     4.071872E-8
         2907.601     4.613716E-8
         2910.198     5.094612E-8
          2912.79     4.840573E-8
         2915.392     4.586368E-8
         2917.992     4.332955E-8
         2920.594     4.134180E-8
         2923.203     4.118583E-8
         2925.807     4.103028E-8
          2928.42     4.087443E-8
         2931.033     3.802405E-8
         2933.646     3.106829E-8
         2936.266     2.411423E-8
         2938.885     1.718335E-8
         2941.506     3.940395E-8
         2944.131     8.316571E-8
         2946.757     1.268073E-7
         2949.387     1.703808E-7
         2952.018     2.116802E-7
         2954.653     2.522532E-7
          2957.29     2.927361E-7
         2959.926     3.330798E-7
         2962.567     3.459494E-7
          2965.21     3.579892E-7
         2967.856     3.700053E-7
         2970.505     3.612881E-7
         2973.155     2.648447E-7
         2975.808     1.685575E-7
         2978.461     7.261352E-8
         2981.121     2.164553E-8
          2983.78     3.245759E-8
         2986.441     4.324398E-8
         2989.104     5.400358E-8
         2991.772     8.982182E-8
         2994.442     1.382050E-7
         2997.113     1.864443E-7
         2999.788     2.345964E-7
         3002.464     2.401227E-7
         3005.142     2.419879E-7
         3007.826     2.438490E-7
         3010.507     2.354244E-7
         3013.194     1.829098E-7
         3015.883     1.305259E-7
         3018.573     7.830642E-8
         3021.267     5.436952E-8
          3023.96     6.220898E-8
          3026.66     7.004188E-8
          3029.36     7.784468E-8
         3032.062     7.075158E-8
          3034.77     5.905007E-8
         3037.475     4.740019E-8
         3040.186     3.637322E-8
         3042.897     3.359257E-8
         3045.612     3.081889E-8
         3048.332     2.804900E-8
         3051.051     2.814179E-8
         3053.772     3.275881E-8
         3056.497     3.736606E-8
         3059.222     4.195401E-8
         3061.954     4.012907E-8
         3064.685     3.576432E-8
         3067.418     3.141121E-8
         3070.156     2.707234E-8
         3072.896     2.281971E-8
         3075.637     1.858135E-8
          3078.38     1.435541E-8
         3081.126     1.624456E-8
         3083.877     2.691179E-8
         3086.628     3.753506E-8
         3089.381     4.812561E-8
         3092.137     5.872651E-8
         3094.895     6.930713E-8
         3097.659     7.986834E-8
         3100.422     8.613654E-8
         3103.187     6.875770E-8
         3105.955     5.131383E-8
         3108.729     3.378306E-8
         3111.501     3.004917E-8
