#  Table wf2f439wsys.tab  Mon 12:21:43 02-Jun-97

#      WAVELENGTH      THROUGHPUT
#       angstroms                

            1850.     1.618348E-8
         1851.651     1.770076E-8
         1853.301     1.923051E-8
         1854.956     2.077721E-8
         1856.611     2.233593E-8
         1858.267     2.390889E-8
         1859.925     2.549710E-8
         1861.584     1.104516E-7
         1863.246     2.002221E-7
         1864.909     2.908538E-7
         1866.572     3.822834E-7
         1868.237     4.745814E-7
         1869.904     5.678000E-7
         1871.573     4.854907E-7
         1873.242     3.916174E-7
         1874.913     2.968348E-7
         1876.585     2.011317E-7
          1878.26     1.044329E-7
         1879.937     6.808122E-9
         1881.613     9.205398E-9
         1883.292     1.559946E-8
         1884.973     2.205008E-8
         1886.654     2.854992E-8
         1888.338     3.510718E-8
         1890.023     4.452146E-8
         1891.709     2.579189E-7
         1893.396     4.731097E-7
         1895.086     6.902096E-7
         1896.775     9.088301E-7
         1898.469     1.129657E-6
         1900.163     1.309491E-6
         1901.857     1.089435E-6
         1903.555     8.672141E-7
         1905.254     6.430906E-7
         1906.953     4.172220E-7
         1908.655     1.893108E-7
         1910.357     1.283233E-8
         1912.061     3.618243E-8
         1913.768     5.974161E-8
         1915.476     8.349881E-8
         1917.184     1.074391E-7
         1918.894     1.315784E-7
         1920.606     1.405031E-7
          1922.32     1.212180E-7
         1924.035     1.017673E-7
         1925.752     8.216034E-8
          1927.47     6.237576E-8
         1929.189     4.243416E-8
          1930.91     5.517331E-8
         1932.634     9.743757E-8
         1934.358     1.400550E-7
         1936.084     1.829991E-7
         1937.811     2.263040E-7
          1939.54     2.699925E-7
          1941.27     2.706571E-7
         1943.003     2.555353E-7
         1944.737     2.402786E-7
          1946.47     2.249062E-7
         1948.207     2.093798E-7
         1949.947     1.937086E-7
         1951.685     1.743717E-7
         1953.427     1.547294E-7
         1955.171     1.349183E-7
         1956.913     1.149617E-7
          1958.66     9.481036E-8
         1960.408     7.922599E-8
         1962.157     7.914710E-8
         1963.908     7.906534E-8
         1965.658     7.898088E-8
         1967.413     7.889348E-8
         1969.169     7.880324E-8
         1970.925     9.811024E-8
         1972.684     1.351148E-7
         1974.444     1.724026E-7
         1976.205     2.099976E-7
         1977.969     2.479451E-7
         1979.734     2.861570E-7
           1981.5     2.937434E-7
         1983.268     2.958689E-7
         1985.037     2.980031E-7
         1986.809     3.001483E-7
         1988.581     3.023019E-7
         1990.355     2.946330E-7
         1992.131     2.474779E-7
         1993.908     1.999264E-7
         1995.688     1.519183E-7
         1997.467     1.036007E-7
          1999.25     5.482391E-8
         2001.034     6.040417E-8
         2002.818     1.059230E-7
         2004.606     1.519635E-7
         2006.396     1.984184E-7
         2008.184     2.452537E-7
         2009.976     2.925900E-7
         2011.769     2.882028E-7
         2013.565     2.830600E-7
         2015.362     2.778589E-7
         2017.158     2.726058E-7
         2018.958     2.672877E-7
          2020.76     2.450359E-7
         2022.563     1.993594E-7
         2024.368     1.532117E-7
         2026.173     1.066535E-7
         2027.982     5.961953E-8
         2029.791     1.216820E-8
         2031.602     1.196138E-7
         2033.414     2.484026E-7
         2035.228     3.783923E-7
         2037.044     5.096682E-7
         2038.861     6.420771E-7
         2040.681     6.912441E-7
         2042.502     5.987528E-7
         2044.324     5.054380E-7
         2046.147     4.112527E-7
         2047.974     3.161228E-7
           2049.8     2.201651E-7
          2051.63     1.924018E-7
         2053.461     1.728937E-7
         2055.291     1.532256E-7
         2057.125     1.333522E-7
         2058.961     1.132936E-7
         2060.798     9.713020E-8
         2062.637     8.613235E-8
         2064.477     7.504080E-8
         2066.318     6.384931E-8
         2068.164     5.254243E-8
         2070.007     4.117228E-8
         2071.855     3.440202E-8
         2073.704     2.757217E-8
         2075.553     2.068616E-8
         2077.405     1.374010E-8
         2079.259     6.727295E-9
         2081.113     5.768360E-9
         2082.971     8.890048E-9
         2084.829     1.203623E-8
         2086.688     1.520864E-8
          2088.55     1.840992E-8
         2090.414     2.128884E-8
         2092.279     2.296294E-8
         2094.145     2.465003E-8
         2096.014     2.635196E-8
         2097.885     2.806724E-8
         2099.756     2.979500E-8
          2101.63     4.584141E-8
         2103.503     6.414741E-8
         2105.381     8.261918E-8
          2107.26     1.012408E-7
         2109.139     1.199981E-7
         2111.022     1.311284E-7
         2112.906     1.357580E-7
         2114.789     1.404150E-7
         2116.677     1.451117E-7
         2118.564     1.498390E-7
         2120.455     1.504800E-7
         2122.348     1.380690E-7
         2124.241     1.255723E-7
         2126.135     1.129784E-7
         2128.033     1.002819E-7
         2129.932     8.748734E-8
         2131.832     7.276687E-8
         2133.734     5.786979E-8
         2135.637     4.286724E-8
         2137.544     2.773747E-8
          2139.45     1.252177E-8
         2141.359     7.625260E-9
          2143.27     6.929648E-9
         2145.182     6.229143E-9
         2147.096     5.523006E-9
         2149.011     4.812022E-9
         2150.929     6.737681E-9
         2152.848     1.149651E-8
         2154.768     1.628845E-8
         2156.692     2.111979E-8
         2158.615     2.597532E-8
         2160.541     3.101039E-8
         2162.469     3.643589E-8
         2164.397     4.188972E-8
          2166.33     4.738930E-8
         2168.263     5.292168E-8
         2170.196     5.689963E-8
         2172.133     4.682272E-8
          2174.07     3.669147E-8
         2176.011     2.649031E-8
         2177.953     1.622664E-8
         2179.895     5.908019E-9
          2181.84     5.891836E-9
         2183.787     6.467884E-9
         2185.735     7.046828E-9
         2187.686     7.629261E-9
         2189.637     8.214537E-9
          2191.59     1.220280E-8
         2193.546     1.699353E-8
         2195.503     2.180801E-8
         2197.462     2.664449E-8
         2199.423     3.150910E-8
         2201.385     2.919708E-8
         2203.348     2.381254E-8
         2205.315     1.833408E-8
         2207.283     1.276525E-8
         2209.252     7.109130E-9
         2211.222     6.019080E-9
         2213.196     7.787288E-9
          2215.17     9.580957E-9
         2217.147     1.140288E-8
         2219.125     1.325185E-8
         2221.104     1.328091E-8
         2223.086     1.183389E-8
         2225.071     1.036330E-8
         2227.055     8.872689E-9
         2229.042     7.357380E-9
         2231.031     6.885933E-9
         2233.021     7.405363E-9
         2235.015     7.932291E-9
         2237.008     8.465455E-9
         2239.003     9.005593E-9
         2241.002     9.953422E-9
         2242.999     1.131324E-8
         2245.002     1.269346E-8
         2247.005     1.409013E-8
         2249.009     1.550501E-8
         2251.016     1.799114E-8
         2253.024     2.154090E-8
         2255.033     2.513602E-8
         2257.046     2.877937E-8
         2259.061     3.246852E-8
         2261.075     3.125135E-8
         2263.092     2.566353E-8
         2265.112     1.999908E-8
         2267.134     1.426103E-8
         2269.156     8.453299E-9
         2271.181     6.028358E-9
         2273.207     6.062548E-9
         2275.234     6.096804E-9
         2277.266     6.131174E-9
         2279.296     6.165542E-9
          2281.33     1.651246E-8
         2283.366     3.247190E-8
         2285.402     4.860067E-8
         2287.441     6.493822E-8
         2289.483     8.146407E-8
         2291.525     9.175834E-8
          2293.57     9.998515E-8
         2295.615     1.082910E-7
         2297.663     1.167301E-7
         2299.715     1.252780E-7
         2301.765     1.409063E-7
          2303.82     1.578732E-7
         2305.876     1.750327E-7
         2307.932     1.923754E-7
         2309.992     2.099247E-7
         2312.051     1.726132E-7
         2314.116     1.345793E-7
          2316.18     9.614141E-8
         2318.246     5.726215E-8
         2320.315     2.341637E-8
         2322.385     2.008403E-8
         2324.457     1.671089E-8
         2326.531     1.330115E-8
         2328.606     9.852286E-9
         2330.685     7.539875E-9
         2332.764     7.616102E-9
         2334.845     7.692837E-9
         2336.927     7.770065E-9
         2339.012     7.847800E-9
         2341.101     7.869499E-9
         2343.188     7.839986E-9
         2345.279     7.809822E-9
         2347.372     7.778982E-9
         2349.467     7.747491E-9
         2351.562     1.231126E-8
         2353.661     1.850424E-8
         2355.759     2.475249E-8
         2357.862     3.107301E-8
         2359.966     3.745731E-8
         2362.071     3.153486E-8
         2364.179     2.534206E-8
         2366.288     1.908975E-8
         2368.398     1.277341E-8
         2370.512     8.012987E-9
         2372.628     8.312911E-9
         2374.744     8.615298E-9
         2376.863     8.920529E-9
         2378.983     9.228273E-9
         2381.105     9.231487E-9
          2383.23     8.950194E-9
         2385.357     8.665936E-9
         2387.485     8.378833E-9
         2389.615     8.088746E-9
         2391.747     1.948751E-8
         2393.881     3.357484E-8
         2396.017     4.780015E-8
         2398.154     6.214600E-8
         2400.293     7.272497E-8
         2402.435     5.872195E-8
          2404.58     4.458932E-8
         2406.724     3.033796E-8
         2408.872     1.594960E-8
         2411.022     9.711635E-9
         2413.171     1.259261E-8
         2415.326     1.550374E-8
         2417.479     1.843424E-8
         2419.637     2.139379E-8
         2421.796     2.116034E-8
         2423.957     2.027153E-8
          2426.12     1.937413E-8
         2428.284     1.846922E-8
         2430.451     1.773915E-8
         2432.619     1.770454E-8
         2434.789     1.766921E-8
         2436.962     1.763313E-8
         2439.136     1.759633E-8
         2441.312     2.415293E-8
          2443.49     3.511976E-8
          2445.67     4.618097E-8
         2447.853     5.733191E-8
         2450.036     6.817524E-8
         2452.222     5.612548E-8
         2454.409     4.397869E-8
           2456.6     3.172629E-8
         2458.792     1.937745E-8
         2460.985     1.351467E-8
          2463.18     1.570598E-8
         2465.379     1.791553E-8
         2467.579     2.014166E-8
         2469.778     2.238193E-8
         2471.983     3.284362E-8
          2474.19     4.431240E-8
         2476.396     5.584791E-8
         2478.606     6.748482E-8
         2480.817     7.557268E-8
         2483.029     7.749966E-8
         2485.247     7.944229E-8
         2487.462     8.139438E-8
         2489.682     8.336200E-8
         2491.904     7.400799E-8
         2494.125     6.269685E-8
         2496.353     5.127801E-8
         2498.579     3.978613E-8
         2500.808     3.061140E-8
          2503.04     2.561107E-8
         2505.272     2.057614E-8
         2507.509     1.549932E-8
         2509.745     1.038824E-8
         2511.985     9.831625E-9
         2514.225     9.863944E-9
         2516.468     9.896319E-9
         2518.714     9.928762E-9
         2520.962     1.150495E-8
          2523.21     1.516282E-8
         2525.462     1.884998E-8
         2527.715     2.256173E-8
         2529.971     2.630297E-8
         2532.229     2.293079E-8
         2534.486     1.944297E-8
         2536.748     1.592469E-8
          2539.01     1.236243E-8
         2541.277     1.073393E-8
         2543.545     1.061665E-8
         2545.813     1.049885E-8
         2548.084     1.038048E-8
         2550.358     1.053664E-8
         2552.635     1.216881E-8
         2554.911     1.380575E-8
         2557.191     1.544987E-8
         2559.471     1.709798E-8
         2561.755     1.729764E-8
         2564.042     1.705781E-8
         2566.329     1.681700E-8
         2568.619     1.657496E-8
         2570.908     2.721441E-8
         2573.205     5.453105E-8
           2575.5     8.191135E-8
         2577.797     1.093984E-7
         2580.097     1.347235E-7
         2582.399     1.085387E-7
         2584.704     8.223432E-8
          2587.01     5.583318E-8
         2589.318     2.934414E-8
         2591.629     2.159998E-8
          2593.94     2.174284E-8
         2596.254     2.188594E-8
         2598.573     2.202949E-8
         2600.889     3.633847E-8
          2603.21     7.354933E-8
         2605.532     1.108769E-7
         2607.856     1.483478E-7
         2610.185     1.805354E-7
         2612.512     1.492933E-7
         2614.843     1.178934E-7
         2617.177     8.636878E-8
          2619.51     5.475984E-8
         2621.849     8.497574E-8
         2624.188     1.317264E-7
         2626.528     1.786544E-7
         2628.873     2.257933E-7
         2631.217     2.258825E-7
         2633.566     1.821204E-7
         2635.916     1.381868E-7
         2638.267     9.410552E-8
          2640.62     5.848636E-8
         2642.977     4.690351E-8
         2645.334     3.528142E-8
         2647.695     2.360708E-8
         2650.057     1.230966E-8
         2652.422     1.785300E-8
         2654.788     2.341406E-8
         2657.157     2.900021E-8
         2659.526     3.460095E-8
         2661.899     3.106948E-8
         2664.275     2.523151E-8
         2666.652     1.937378E-8
         2669.031     1.348981E-8
         2671.412     1.289710E-8
         2673.796     1.595506E-8
         2676.181     1.902257E-8
          2678.57     2.210362E-8
          2680.96     3.165559E-8
          2683.35     5.086667E-8
         2685.746     7.018553E-8
          2688.14     8.954284E-8
          2690.54     1.000007E-7
         2692.941     7.941720E-8
         2695.343     5.876363E-8
         2697.748     3.801937E-8
         2700.153     1.871975E-8
         2702.563     2.145609E-8
         2704.975     2.421090E-8
         2707.387     2.698280E-8
         2709.804     2.977548E-8
         2712.222     2.594921E-8
         2714.642     2.151068E-8
         2717.063     1.704134E-8
         2719.486     1.254023E-8
         2721.915     1.161032E-8
         2724.343     1.164531E-8
         2726.772     1.168032E-8
         2729.205     1.171537E-8
          2731.64     2.470928E-8
         2734.078     4.410083E-8
         2736.517     6.361374E-8
         2738.958     8.325799E-8
         2741.402     8.192565E-8
         2743.849     6.482193E-8
         2746.296     4.761142E-8
         2748.747     3.027156E-8
         2751.198     2.025513E-8
         2753.653     1.796955E-8
         2756.111     1.567899E-8
         2758.569     1.338481E-8
         2761.031     1.205098E-8
         2763.495     1.205855E-8
         2765.958     1.206611E-8
         2768.427     1.207369E-8
         2770.898     1.218075E-8
         2773.369     1.246233E-8
         2775.844     1.274467E-8
          2778.32     1.302744E-8
         2780.799     2.456951E-8
          2783.28     5.986915E-8
         2785.764     9.524617E-8
         2788.249     1.306728E-7
         2790.736     1.452717E-7
         2793.227     1.100785E-7
          2795.72     7.481316E-8
         2798.213     3.949630E-8
         2800.709     2.137771E-8
         2803.209     4.680648E-8
         2805.709     7.227143E-8
         2808.213     9.780501E-8
         2810.718     1.161268E-7
         2813.226     1.164221E-7
         2815.736     1.167178E-7
         2818.247     1.170139E-7
         2820.764     1.262455E-7
         2823.278     1.559703E-7
         2825.798     1.857894E-7
          2828.32     2.156654E-7
         2830.843     2.202576E-7
         2833.369     1.742839E-7
         2835.898     1.282192E-7
         2838.426     8.212545E-8
         2840.959     4.946079E-8
         2843.495     3.905038E-8
         2846.031     2.862699E-8
         2848.571     1.817653E-8
         2851.112     1.229607E-8
         2853.655     1.230182E-8
         2856.202     1.230757E-8
         2858.751     1.231333E-8
         2861.301     1.286215E-8
         2863.853     1.393426E-8
         2866.407     1.500835E-8
         2868.965     1.608505E-8
         2871.526     1.890832E-8
         2874.087     2.291831E-8
         2876.652     2.693821E-8
         2879.218     3.096231E-8
         2881.788     2.865318E-8
         2884.358     2.356430E-8
         2886.931     1.846630E-8
         2889.507     1.335673E-8
         2892.084     1.723230E-8
         2894.666     2.324652E-8
         2897.248     2.926782E-8
         2899.832     3.529847E-8
         2902.421     6.119627E-8
          2905.01     8.838922E-8
         2907.601     1.155320E-7
         2910.198     1.383366E-7
          2912.79     1.087815E-7
         2915.392     7.920960E-8
         2917.992     4.973245E-8
         2920.594     2.713027E-8
         2923.203     2.758379E-8
         2925.807     2.803515E-8
          2928.42     2.848650E-8
         2931.033     2.703169E-8
         2933.646     2.267310E-8
         2936.266     1.831554E-8
         2938.885     1.397249E-8
         2941.506     2.929062E-8
         2944.131     5.913714E-8
         2946.757     8.890167E-8
         2949.387     1.186198E-7
         2952.018     1.043915E-7
         2954.653     7.686897E-8
          2957.29     4.940594E-8
         2959.926     2.203569E-8
         2962.567     2.685081E-8
          2965.21     3.258090E-8
         2967.856     3.830069E-8
         2970.505     4.134228E-8
         2973.155     3.307717E-8
         2975.808     2.482537E-8
         2978.461     1.660292E-8
         2981.121     1.301439E-8
          2983.78     1.578620E-8
         2986.441     1.855139E-8
         2989.104     2.130964E-8
         2991.772     2.400585E-8
         2994.442     2.666598E-8
         2997.113     2.931807E-8
         2999.788     3.196521E-8
         3002.464     4.272054E-8
         3005.142     5.414588E-8
         3007.826     6.555704E-8
         3010.507     7.156240E-8
         3013.194     5.457690E-8
         3015.883     3.763371E-8
         3018.573     2.074376E-8
         3021.267     1.176371E-8
          3023.96     1.167455E-8
          3026.66     1.158538E-8
          3029.36     1.149645E-8
         3032.062     1.219005E-8
          3034.77     1.312548E-8
         3037.475     1.405664E-8
         3040.186     1.485524E-8
         3042.897     1.387533E-8
         3045.612     1.289786E-8
         3048.332     1.192171E-8
         3051.051     1.321911E-8
         3053.772     1.811386E-8
         3056.497     2.299841E-8
         3059.222     2.786263E-8
         3061.954     2.569782E-8
         3064.685     2.074991E-8
         3067.418     1.581535E-8
         3070.156     1.127806E-8
         3072.896     1.313515E-8
         3075.637     1.498580E-8
          3078.38     1.683083E-8
         3081.126     1.743987E-8
         3083.877     1.627700E-8
         3086.628     1.511875E-8
         3089.381     1.396388E-8
         3092.137     2.114618E-8
         3094.895     3.071817E-8
         3097.659     4.027289E-8
         3100.422     4.928011E-8
         3103.187     5.547440E-8
         3105.955     6.169164E-8
         3108.729     6.793958E-8
         3111.501     6.835605E-8
