#  Table wf2f675wsys.tab  Mon 12:21:53 02-Jun-97

#      WAVELENGTH      THROUGHPUT
#       angstroms                

            1850.     5.065035E-6
         1851.651     4.257414E-6
         1853.301     3.442757E-6
         1854.956     2.618666E-6
         1856.611     1.787771E-6
         1858.267     9.488826E-7
         1859.925     1.014606E-7
         1861.584     9.195409E-8
         1863.246     1.224476E-7
         1864.909     1.532319E-7
         1866.572     1.842856E-7
         1868.237     2.156327E-7
         1869.904     2.472908E-7
         1871.573     4.949918E-7
         1873.242     7.581457E-7
         1874.913     1.023792E-6
         1876.585     1.291962E-6
          1878.26     1.562866E-6
         1879.937     1.835612E-6
         1881.613     1.999087E-6
         1883.292     2.159512E-6
         1884.973     2.321311E-6
         1886.654     2.484298E-6
         1888.338     2.648680E-6
         1890.023     2.809577E-6
         1891.709     2.624414E-6
         1893.396     2.437620E-6
         1895.086     2.249094E-6
         1896.775     2.059173E-6
         1898.469     1.867260E-6
         1900.163     1.674804E-6
         1901.857     1.490341E-6
         1903.555     1.304048E-6
         1905.254     1.116144E-6
         1906.953     9.267616E-7
         1908.655     7.356514E-7
         1910.357     5.789863E-7
         1912.061     5.569952E-7
         1913.768     5.347913E-7
         1915.476     5.123850E-7
         1917.184     4.897901E-7
         1918.894     4.669915E-7
         1920.606     4.303612E-7
          1922.32     3.683733E-7
         1924.035     3.058538E-7
         1925.752     2.428327E-7
          1927.47     1.792413E-7
         1929.189     1.151456E-7
          1930.91     1.136136E-7
         1932.634     1.685616E-7
         1934.358     2.239675E-7
         1936.084     2.797970E-7
         1937.811     3.360944E-7
          1939.54     3.928895E-7
          1941.27     3.577430E-7
         1943.003     2.886381E-7
         1944.737     2.189407E-7
          1946.47     1.487386E-7
         1948.207     7.785691E-8
         1949.947     6.337495E-9
         1951.685     1.212409E-7
         1953.427     2.431569E-7
         1955.171     3.660882E-7
         1956.913     4.898893E-7
          1958.66     6.148667E-7
         1960.408     6.839475E-7
         1962.157     5.658256E-7
         1963.908     4.466196E-7
         1965.658     3.265521E-7
         1967.413     2.053271E-7
         1969.169     8.307536E-8
         1970.925     2.307115E-8
         1972.684     1.960576E-8
         1974.444     1.611298E-8
         1976.205     1.259056E-8
         1977.969     9.034231E-9
         1979.734     5.452279E-9
           1981.5     6.996743E-9
         1983.268     9.475115E-9
         1985.037     1.197246E-8
         1986.809     1.449161E-8
         1988.581     1.702964E-8
         1990.355     1.856456E-8
         1992.131     1.600112E-8
         1993.908     1.341606E-8
         1995.688     1.080611E-8
         1997.467     8.179269E-9
          1999.25     5.527395E-9
         2001.034     1.118823E-8
         2002.818     2.296703E-8
         2004.606     3.488095E-8
         2006.396     4.690225E-8
         2008.184     5.902216E-8
         2009.976     7.127180E-8
         2011.769     1.088715E-7
         2013.565     1.471900E-7
         2015.362     1.858747E-7
         2017.158     2.248766E-7
         2018.958     2.642928E-7
          2020.76     2.670606E-7
         2022.563     2.189103E-7
         2024.368     1.702631E-7
         2026.173     1.211828E-7
         2027.982     7.160085E-8
         2029.791     2.157859E-8
         2031.602     1.583914E-8
         2033.414     1.592720E-8
         2035.228     1.601561E-8
         2037.044     1.610444E-8
         2038.861     1.619358E-8
         2040.681     2.430615E-8
         2042.502     4.597945E-8
         2044.324     6.784043E-8
         2046.147     8.990006E-8
         2047.974     1.121756E-7
           2049.8     1.346398E-7
          2051.63     1.300867E-7
         2053.461     1.221341E-7
         2055.291     1.141148E-7
         2057.125     1.060105E-7
         2058.961     9.782915E-8
         2060.798     8.644572E-8
         2062.637     7.085202E-8
         2064.477     5.512682E-8
         2066.318     3.926127E-8
         2068.164     2.323348E-8
         2070.007     7.171092E-9
         2071.855     1.166237E-8
         2073.704     1.619230E-8
         2075.553     2.075863E-8
         2077.405     2.536390E-8
         2079.259     3.001257E-8
         2081.113     3.077756E-8
         2082.971     2.892509E-8
         2084.829     2.705727E-8
         2086.688     2.517306E-8
          2088.55     2.327091E-8
         2090.414     3.100450E-8
         2092.279     7.271151E-8
         2094.145     1.147536E-7
         2096.014     1.571764E-7
         2097.885     1.999431E-7
         2099.756     2.430323E-7
          2101.63     2.099734E-7
         2103.503     1.651812E-7
         2105.381     1.199765E-7
          2107.26     7.439863E-8
         2109.139     2.848164E-8
         2111.022     1.023765E-8
         2112.906     1.559225E-8
         2114.789     2.098133E-8
         2116.677     2.641905E-8
         2118.564     3.189504E-8
         2120.455     3.491656E-8
         2122.348     3.004556E-8
         2124.241     2.514138E-8
         2126.135     2.019947E-8
         2128.033     1.521776E-8
         2129.932     1.019798E-8
         2131.832     1.094740E-8
         2133.734     1.191717E-8
         2135.637     1.289356E-8
         2137.544     1.387798E-8
          2139.45     1.487143E-8
         2141.359     1.815696E-8
          2143.27     2.239677E-8
         2145.182     2.666537E-8
         2147.096     3.096727E-8
         2149.011     3.529765E-8
         2150.929     3.959124E-8
         2152.848     4.383622E-8
         2154.768     4.811026E-8
         2156.692     5.241899E-8
         2158.615     5.674881E-8
         2160.541     5.727476E-8
         2162.469     4.794074E-8
         2164.397     3.855664E-8
          2166.33     2.909242E-8
         2168.263     1.957046E-8
         2170.196     1.088058E-8
         2172.133     9.970170E-9
          2174.07     9.054791E-9
         2176.011     8.133038E-9
         2177.953     7.205577E-9
         2179.895     6.273093E-9
          2181.84     7.424943E-9
         2183.787     8.703395E-9
         2185.735     9.988322E-9
         2187.686     1.128104E-8
         2189.637     1.258012E-8
          2191.59     1.971101E-8
         2193.546     2.821842E-8
         2195.503     3.676802E-8
         2197.462     4.535671E-8
         2199.423     5.399537E-8
         2201.385     4.979609E-8
         2203.348     4.009992E-8
         2205.315     3.023492E-8
         2207.283     2.020747E-8
         2209.252     1.002312E-8
         2211.222     8.105117E-9
         2213.196     1.136211E-8
          2215.17     1.466628E-8
         2217.147     1.802278E-8
         2219.125     2.142941E-8
         2221.104     2.913727E-8
         2223.086     4.037238E-8
         2225.071     5.177894E-8
         2227.055     6.332937E-8
         2229.042     7.505979E-8
         2231.031     7.327107E-8
         2233.021     5.864086E-8
         2235.015     4.377799E-8
         2237.008     2.871789E-8
         2239.003     1.343964E-8
         2241.002     7.344616E-9
         2242.999     1.058995E-8
         2245.002     1.388519E-8
         2247.005     1.722092E-8
         2249.009     2.060134E-8
         2251.016     2.311986E-8
         2253.024     2.477777E-8
         2255.033     2.645588E-8
         2257.046     2.815550E-8
         2259.061     2.987550E-8
         2261.075     2.812008E-8
         2263.092     2.326703E-8
         2265.112     1.834737E-8
         2267.134     1.336372E-8
         2269.156     8.319498E-9
         2271.181     6.918187E-9
         2273.207     8.167745E-9
         2275.234     9.432231E-9
         2277.266     1.071326E-8
         2279.296     1.200672E-8
          2281.33     1.469176E-8
         2283.366     1.813969E-8
         2285.402     2.162358E-8
         2287.441     2.515198E-8
         2289.483     2.872044E-8
         2291.525     3.618128E-8
          2293.57     4.504733E-8
         2295.615     5.400181E-8
         2297.663     6.308533E-8
         2299.715     7.228526E-8
         2301.765     8.105394E-8
          2303.82     8.985062E-8
         2305.876     9.874678E-8
         2307.932     1.077374E-7
         2309.992     1.168348E-7
         2312.051     1.330581E-7
         2314.116     1.495203E-7
          2316.18     1.661470E-7
         2318.246     1.829543E-7
         2320.315     1.938429E-7
         2322.385     1.705888E-7
         2324.457     1.470484E-7
         2326.531     1.232513E-7
         2328.606     9.917962E-8
         2330.685     7.799294E-8
         2332.764     6.311561E-8
         2334.845     4.806926E-8
         2336.927     3.285673E-8
         2339.012     1.747556E-8
         2341.101     9.857761E-9
         2343.188     9.338920E-9
         2345.279     8.814039E-9
         2347.372     8.282840E-9
         2349.467     7.745668E-9
         2351.562     9.761122E-9
         2353.661     1.267747E-8
         2355.759     1.561969E-8
         2357.862     1.859578E-8
         2359.966     2.160175E-8
         2362.071     1.886399E-8
         2364.179     1.600019E-8
         2366.288     1.310871E-8
         2368.398     1.018745E-8
         2370.512     8.543372E-9
         2372.628     1.099947E-8
         2374.744     1.347774E-8
         2376.863     1.598138E-8
         2378.983     1.850763E-8
         2381.105     2.189319E-8
          2383.23     2.608608E-8
         2385.357     3.031783E-8
         2387.485     3.458663E-8
         2389.615     3.889452E-8
         2391.747     4.468053E-8
         2393.881     5.083314E-8
         2396.017     5.704490E-8
         2398.154     6.330816E-8
         2400.293     6.731553E-8
         2402.435     5.672137E-8
          2404.58     4.602878E-8
         2406.724     3.524601E-8
         2408.872     2.435923E-8
         2411.022     1.770350E-8
         2413.171     1.578985E-8
         2415.326     1.385550E-8
         2417.479     1.190763E-8
         2419.637     9.939779E-9
         2421.796     9.893358E-9
         2423.957     1.023968E-8
          2426.12     1.058888E-8
         2428.284     1.094053E-8
         2430.451     1.506525E-8
         2432.619     3.362918E-8
         2434.789     5.234419E-8
         2436.962     7.122566E-8
         2439.136     9.025938E-8
         2441.312     8.681055E-8
          2443.49     6.837632E-8
          2445.67     4.978054E-8
         2447.853     3.103086E-8
         2450.036     1.244852E-8
         2452.222     1.178284E-8
         2454.409     1.111161E-8
           2456.6     1.043435E-8
         2458.792     9.751564E-9
         2460.985     9.387739E-9
          2463.18     9.420122E-9
         2465.379     9.452580E-9
         2467.579     9.485086E-9
         2469.778     9.517601E-9
         2471.983     9.549971E-9
          2474.19     9.582382E-9
         2476.396     9.614787E-9
         2478.606     9.647283E-9
         2480.817     1.006075E-8
         2483.029     1.113017E-8
         2485.247     1.220891E-8
         2487.462     1.329356E-8
         2489.682     1.438746E-8
         2491.904     1.467920E-8
         2494.125     1.483681E-8
         2496.353     1.499563E-8
         2498.579     1.515514E-8
         2500.808     1.838442E-8
          2503.04     2.705991E-8
         2505.272     3.579405E-8
         2507.509     4.459948E-8
         2509.745     5.346295E-8
         2511.985     5.114279E-8
         2514.225     4.735402E-8
         2516.468     4.353568E-8
         2518.714     3.968597E-8
         2520.962     3.490097E-8
          2523.21     2.886796E-8
         2525.462     2.278561E-8
         2527.715     1.666170E-8
         2529.971     1.048810E-8
         2532.229     1.836632E-8
         2534.486     2.647924E-8
         2536.748     3.466165E-8
          2539.01     4.282993E-8
         2541.277     4.251534E-8
         2543.545     3.558577E-8
         2545.813     2.863339E-8
         2548.084     2.165457E-8
         2550.358     1.563003E-8
         2552.635     1.485999E-8
         2554.911     1.408745E-8
         2557.191     1.331126E-8
         2559.471     1.253294E-8
         2561.755     1.206988E-8
         2564.042     1.170134E-8
         2566.329     1.133148E-8
         2568.619     1.095991E-8
         2570.908     1.074146E-8
         2573.205     1.075702E-8
           2575.5     1.077248E-8
         2577.797     1.078787E-8
         2580.097     1.104511E-8
         2582.399     1.678403E-8
         2584.704     2.254862E-8
          2587.01     2.833391E-8
         2589.318     3.413795E-8
         2591.629     4.064125E-8
          2593.94     4.744907E-8
         2596.254     5.428120E-8
         2598.573     6.114764E-8
         2600.889     7.041259E-8
          2603.21     8.356892E-8
         2605.532     9.676578E-8
         2607.856     1.100126E-7
         2610.185     1.210574E-7
         2612.512     1.058060E-7
         2614.843     9.047717E-8
         2617.177     7.508702E-8
          2619.51     5.965525E-8
         2621.849     4.895480E-8
         2624.188     3.950213E-8
         2626.528     3.001269E-8
         2628.873     2.047972E-8
         2631.217     1.532044E-8
         2633.566     1.422904E-8
         2635.916     1.313325E-8
         2638.267     1.203363E-8
          2640.62     1.433910E-8
         2642.977     2.620728E-8
         2645.334     3.811463E-8
         2647.695     5.007450E-8
         2650.057     6.161598E-8
         2652.422     5.463460E-8
         2654.788     4.762981E-8
         2657.157     4.059235E-8
         2659.526     3.353543E-8
         2661.899     2.960446E-8
         2664.275     2.644876E-8
         2666.652     2.328221E-8
         2669.031     2.010129E-8
         2671.412     2.443421E-8
         2673.796     3.396299E-8
         2676.181     4.352172E-8
          2678.57     5.312290E-8
          2680.96     7.156586E-8
          2683.35     1.031904E-7
         2685.746     1.349920E-7
          2688.14     1.668567E-7
          2690.54     1.830494E-7
         2692.941     1.446097E-7
         2695.343     1.060392E-7
         2697.748     6.729940E-8
         2700.153     3.069506E-8
         2702.563     2.692234E-8
         2704.975     2.312313E-8
         2707.387     1.929930E-8
         2709.804     1.544576E-8
         2712.222     1.978037E-8
         2714.642     2.486923E-8
         2717.063     2.999250E-8
         2719.486     3.515130E-8
         2721.915     4.201484E-8
         2724.343     4.936458E-8
         2726.772     5.676442E-8
         2729.205     6.421448E-8
          2731.64     6.729179E-8
         2734.078     6.823385E-8
         2736.517     6.918061E-8
         2738.958     7.013257E-8
         2741.402     7.118894E-8
         2743.849     7.232478E-8
         2746.296     7.346632E-8
         2748.747     7.461510E-8
         2751.198     6.770208E-8
         2753.653     5.230816E-8
         2756.111     3.688070E-8
         2758.569     2.142886E-8
         2761.031     1.387340E-8
         2763.495     1.734064E-8
         2765.958     2.081120E-8
         2768.427     2.429332E-8
         2770.898     2.638428E-8
         2773.369     2.602556E-8
         2775.844     2.566583E-8
          2778.32     2.530553E-8
         2780.799     2.556312E-8
          2783.28     2.712531E-8
         2785.764     2.869090E-8
         2788.249     3.025867E-8
         2790.736     3.223475E-8
         2793.227     3.518118E-8
          2795.72     3.813362E-8
         2798.213     4.109034E-8
         2800.709     4.104262E-8
         2803.209     3.339572E-8
         2805.709     2.573788E-8
         2808.213     1.805940E-8
         2810.718     1.990508E-8
         2813.226     4.554083E-8
         2815.736     7.121183E-8
         2818.247     9.693311E-8
         2820.764     1.145550E-7
         2823.278     1.134110E-7
         2825.798     1.122634E-7
          2828.32     1.111135E-7
         2830.843     1.173979E-7
         2833.369     1.385488E-7
         2835.898     1.597415E-7
         2838.426     1.809475E-7
         2840.959     1.782849E-7
         2843.495     1.362852E-7
         2846.031     9.423315E-8
         2848.571     5.207188E-8
         2851.112     2.789413E-8
         2853.655     2.687868E-8
         2856.202     2.586080E-8
         2858.751     2.484108E-8
         2861.301     2.283235E-8
         2863.853     1.987001E-8
         2866.407     1.690216E-8
         2868.965     1.392708E-8
         2871.526     1.870062E-8
         2874.087     2.874011E-8
         2876.652     3.880445E-8
         2879.218     4.887929E-8
         2881.788     6.114948E-8
         2884.358     7.438263E-8
         2886.931     8.763950E-8
         2889.507     1.009263E-7
         2892.084     8.458981E-8
         2894.666     6.119536E-8
         2897.248     3.777334E-8
         2899.832     1.431488E-8
         2902.421     2.683670E-8
          2905.01     4.181880E-8
         2907.601     5.677333E-8
         2910.198     6.975185E-8
          2912.79     5.888971E-8
         2915.392     4.802128E-8
         2917.992     3.718756E-8
         2920.594     2.902976E-8
         2923.203     2.984997E-8
         2925.807     3.066641E-8
          2928.42     3.148295E-8
         2931.033     2.995376E-8
         2933.646     2.485137E-8
         2936.266     1.975021E-8
         2938.885     1.466604E-8
         2941.506     1.249480E-8
         2944.131     1.247599E-8
         2946.757     1.245716E-8
         2949.387     1.243827E-8
         2952.018     1.332906E-8
         2954.653     1.449443E-8
          2957.29     1.565717E-8
         2959.926     1.681586E-8
         2962.567     1.951646E-8
          2965.21     2.225403E-8
         2967.856     2.498663E-8
         2970.505     3.700741E-8
         2973.155     8.838145E-8
         2975.808     1.396707E-7
         2978.461     1.907756E-7
         2981.121     2.068262E-7
          2983.78     1.747968E-7
         2986.441     1.428414E-7
         2989.104     1.109635E-7
         2991.772     9.030406E-8
         2994.442     7.533385E-8
         2997.113     6.040731E-8
         2999.788     4.550689E-8
         3002.464     3.652893E-8
         3005.142     2.807717E-8
         3007.826     1.963536E-8
         3010.507     1.336696E-8
         3013.194     1.627561E-8
         3015.883     1.917684E-8
         3018.573     2.206873E-8
         3021.267     2.326696E-8
          3023.96     2.256270E-8
          3026.66     2.185882E-8
          3029.36     2.115741E-8
         3032.062     2.558018E-8
          3034.77     3.158686E-8
         3037.475     3.756655E-8
         3040.186     4.253909E-8
         3042.897     3.397281E-8
         3045.612     2.542858E-8
         3048.332     1.689659E-8
         3051.051     1.249929E-8
         3053.772     1.462072E-8
         3056.497     1.673767E-8
         3059.222     1.884575E-8
         3061.954     3.813867E-8
         3064.685     6.418179E-8
         3067.418     9.015310E-8
         3070.156     1.130041E-7
         3072.896     8.520902E-8
         3075.637     5.750773E-8
          3078.38     2.988825E-8
         3081.126     1.642355E-8
         3083.877     2.323749E-8
         3086.628     3.002330E-8
         3089.381     3.678815E-8
         3092.137     5.241556E-8
         3094.895     7.056582E-8
         3097.659     8.868321E-8
         3100.422     1.019204E-7
         3103.187     8.842633E-8
         3105.955     7.488163E-8
         3108.729     6.126934E-8
         3111.501     8.402570E-8
