#  Table wf2f160bwsys.tab  Mon 12:21:38 02-Jun-97

#      WAVELENGTH      THROUGHPUT
#       angstroms                

            1216.     4.679715E-4
          1217.34     4.763569E-4
         1218.682     4.848494E-4
         1220.026     4.934312E-4
         1221.371     5.006229E-4
         1222.717     5.078930E-4
         1224.065     5.152510E-4
         1225.414     5.226923E-4
         1226.765     5.302189E-4
         1228.117     5.378312E-4
         1229.471     5.455295E-4
         1230.826     5.524580E-4
         1232.183     5.589107E-4
         1233.542     5.654279E-4
         1234.901     5.720014E-4
         1236.262     5.786406E-4
         1237.625     5.853399E-4
         1238.989     5.921065E-4
         1240.355     5.986408E-4
         1241.722     6.043680E-4
         1243.091     6.101438E-4
         1244.461     6.159649E-4
         1245.833     6.218292E-4
         1247.207     6.277455E-4
         1248.582     6.337063E-4
         1249.957     6.397104E-4
         1251.335     6.449110E-4
         1252.715     6.501186E-4
         1254.095     6.553579E-4
         1255.478     6.606365E-4
         1256.862     6.659473E-4
         1258.247     6.712900E-4
         1259.634     6.766703E-4
         1261.023     6.815365E-4
         1262.413     6.862323E-4
         1263.805     6.909531E-4
         1265.198     6.956987E-4
         1266.592     7.004674E-4
         1267.989     7.052642E-4
         1269.387     7.100884E-4
         1270.786     7.145714E-4
         1272.187     7.187931E-4
         1273.588     7.230301E-4
         1274.992     7.272869E-4
         1276.399     7.315634E-4
         1277.805     7.358536E-4
         1279.214     7.401629E-4
         1280.624     7.442621E-4
         1282.035     7.480845E-4
         1283.449     7.519226E-4
         1284.864     7.557707E-4
          1286.28     7.596280E-4
         1287.698     7.634997E-4
         1289.117     7.673829E-4
         1290.538     7.711335E-4
         1291.961     7.746557E-4
         1293.385     7.781854E-4
         1294.811     7.817213E-4
         1296.238     7.852662E-4
         1297.668     7.888207E-4
         1299.098     7.923796E-4
          1300.53     7.954527E-4
         1301.963     7.976861E-4
         1303.398     7.999207E-4
         1304.835     8.021586E-4
         1306.274     8.043995E-4
         1307.713     8.066405E-4
         1309.155     8.088848E-4
         1310.597     8.110486E-4
         1312.042     8.130996E-4
         1313.489     8.151509E-4
         1314.937     8.172038E-4
         1316.386     8.192552E-4
         1317.837     8.213081E-4
          1319.29     8.233606E-4
         1320.744     8.253336E-4
           1322.2     8.272295E-4
         1323.657     8.291241E-4
         1325.117     8.310181E-4
         1326.578     8.329112E-4
         1328.039     8.348023E-4
         1329.503     8.366936E-4
         1330.969     8.384885E-4
         1332.436     8.402325E-4
         1333.905     8.419746E-4
         1335.376     8.437146E-4
         1336.847     8.454511E-4
         1338.321     8.471865E-4
         1339.796     8.489194E-4
         1341.273     8.505660E-4
         1342.752     8.521963E-4
         1344.232     8.538234E-4
         1345.713     8.554464E-4
         1347.197     8.570670E-4
         1348.682     8.586846E-4
         1350.169     8.602901E-4
         1351.657     8.618265E-4
         1353.146     8.633581E-4
         1354.638     8.647824E-4
         1356.131     8.660631E-4
         1357.627     8.673402E-4
         1359.123     8.686117E-4
         1360.621     8.698622E-4
         1362.121     8.710837E-4
         1363.622     8.722999E-4
         1365.126     8.735126E-4
          1366.63     8.747192E-4
         1368.137     8.759216E-4
         1369.645     8.771191E-4
         1371.155     8.783105E-4
         1372.667     8.794983E-4
          1374.18     8.806802E-4
         1375.694     8.818565E-4
         1377.211     8.830283E-4
         1378.729     8.841950E-4
         1380.249     8.853607E-4
         1381.771     8.865420E-4
         1383.294     8.877185E-4
         1384.818     8.888891E-4
         1386.345     8.900553E-4
         1387.874     8.912170E-4
         1389.403     8.923721E-4
         1390.935     8.935640E-4
         1392.468     8.947772E-4
         1394.002     8.959851E-4
          1395.54     8.971892E-4
         1397.078     8.983880E-4
         1398.618     8.995814E-4
          1400.16     9.005777E-4
         1401.703     8.998999E-4
         1403.248     8.992180E-4
         1404.795     8.985310E-4
         1406.343     8.978401E-4
         1407.894     8.971448E-4
         1409.446     8.964447E-4
         1410.999     8.957693E-4
         1412.555     8.951047E-4
         1414.112     8.944359E-4
          1415.67     8.937633E-4
         1417.231     8.930861E-4
         1418.793     8.924047E-4
         1420.357     8.917146E-4
         1421.923     8.910059E-4
         1423.491     8.902927E-4
         1425.059     8.895757E-4
          1426.63     8.888540E-4
         1428.203     8.881280E-4
         1429.777     8.873977E-4
         1431.354     8.866062E-4
         1432.932     8.858008E-4
          1434.51     8.849915E-4
         1436.092     8.841772E-4
         1437.676     8.833581E-4
          1439.26     8.825356E-4
         1440.847     8.816377E-4
         1442.435     8.806734E-4
         1444.024     8.797051E-4
         1445.617     8.787314E-4
          1447.21     8.777539E-4
         1448.805     8.767713E-4
         1450.402     8.757351E-4
         1452.001     8.745485E-4
         1453.602     8.733560E-4
         1455.205     8.721589E-4
         1456.808     8.709579E-4
         1458.414     8.697512E-4
         1460.022     8.685365E-4
         1461.631     8.670774E-4
         1463.243     8.656134E-4
         1464.856     8.641442E-4
          1466.47     8.626707E-4
         1468.086     8.611911E-4
         1469.706     8.597058E-4
         1471.325     8.579642E-4
         1472.947     8.561603E-4
         1474.571     8.543509E-4
         1476.196     8.525368E-4
         1477.824     8.507156E-4
         1479.453     8.488900E-4
         1481.083     8.468221E-4
         1482.716     8.446276E-4
          1484.35     8.424275E-4
         1485.987     8.402215E-4
         1487.625     8.386369E-4
         1489.264     8.380559E-4
         1490.906     8.372291E-4
         1492.549     8.361986E-4
         1494.195     8.351493E-4
         1495.842     8.340810E-4
         1497.491     8.329938E-4
         1499.142     8.318878E-4
         1500.794     8.295288E-4
         1502.449     8.258127E-4
         1504.105     8.220826E-4
         1505.763     8.183335E-4
         1507.423     8.145671E-4
         1509.084     8.107858E-4
         1510.748     8.068408E-4
         1512.414     8.027066E-4
          1514.08     7.985582E-4
         1515.749     7.943922E-4
         1517.419     7.902122E-4
         1519.093     7.860124E-4
         1520.768     7.817140E-4
         1522.444     7.772998E-4
         1524.122     7.728730E-4
         1525.802     7.684299E-4
         1527.484     7.639729E-4
         1529.168     7.595018E-4
         1530.854     7.549761E-4
          1532.54     7.503994E-4
          1534.23     7.458077E-4
         1535.921     7.412031E-4
         1537.615     7.365842E-4
          1539.31     7.319574E-4
         1541.006     7.273362E-4
         1542.705     7.227164E-4
         1544.405     7.180877E-4
         1546.109     7.122829E-4
         1547.812     7.058773E-4
         1549.518     6.994900E-4
         1551.227     6.932169E-4
         1552.936     6.870045E-4
         1554.648     6.808104E-4
         1556.363     6.746342E-4
         1558.078     6.684847E-4
         1559.795     6.623542E-4
         1561.515     6.564447E-4
         1563.235     6.505853E-4
         1564.958     6.447430E-4
         1566.685     6.389178E-4
         1568.411     6.331183E-4
          1570.14     6.273598E-4
         1571.871     6.218920E-4
         1573.603     6.164454E-4
         1575.338     6.110142E-4
         1577.075     6.055984E-4
         1578.813     6.002063E-4
         1580.553     5.949509E-4
         1582.295     5.899749E-4
         1584.039     5.850119E-4
         1585.785     5.800651E-4
         1587.534     5.751341E-4
         1589.284     5.702191E-4
         1591.036     5.655786E-4
          1592.79     5.611310E-4
         1594.545     5.566989E-4
         1596.303     5.522778E-4
         1598.062     5.478701E-4
         1599.824     5.434756E-4
         1601.588     5.386475E-4
         1603.353     5.337904E-4
          1605.12     5.289499E-4
          1606.89     5.241276E-4
         1608.661     5.193240E-4
         1610.434     5.146617E-4
          1612.21     5.103919E-4
         1613.986     5.061380E-4
         1615.765     5.018962E-4
         1617.548     4.976658E-4
          1619.33     4.934540E-4
         1621.115     4.895645E-4
         1622.902     4.858714E-4
          1624.69     4.821896E-4
         1626.482     4.785137E-4
         1628.275     4.748505E-4
         1630.069     4.712145E-4
         1631.867     4.680600E-4
         1633.665     4.649124E-4
         1635.466     4.617664E-4
         1637.269     4.586268E-4
         1639.074     4.554924E-4
          1640.88     4.526064E-4
         1642.689     4.499757E-4
           1644.5     4.473456E-4
         1646.313     4.447163E-4
         1648.128     4.421134E-4
         1649.944     4.398520E-4
         1651.763     4.380653E-4
         1653.585     4.362857E-4
         1655.407     4.345010E-4
         1657.232     4.327082E-4
         1659.058     4.309091E-4
         1660.888     4.293172E-4
         1662.719     4.279465E-4
         1664.552     4.265659E-4
         1666.386     4.251761E-4
         1668.223     4.237754E-4
         1670.062     4.223778E-4
         1671.903     4.213430E-4
         1673.746     4.202959E-4
          1675.59     4.192369E-4
         1677.437     4.181650E-4
         1679.287     4.170803E-4
         1681.139     4.161868E-4
         1682.991     4.154078E-4
         1684.847     4.146140E-4
         1686.704     4.138054E-4
         1688.563     4.129824E-4
         1690.425     4.122074E-4
         1692.287     4.116331E-4
         1694.153     4.110418E-4
         1696.021     4.104338E-4
          1697.89     4.098093E-4
         1699.762     4.091672E-4
         1701.636     4.091955E-4
         1703.512     4.093112E-4
         1705.389     4.094144E-4
         1707.269     4.095050E-4
         1709.151     4.095831E-4
         1711.035     4.097581E-4
         1712.922     4.100101E-4
         1714.809     4.102486E-4
         1716.699     4.104733E-4
         1718.592     4.106844E-4
         1720.485     4.109212E-4
         1722.383     4.112604E-4
         1724.281     4.115844E-4
         1726.182     4.118939E-4
         1728.086     4.121885E-4
          1729.99     4.124680E-4
         1731.897     4.128590E-4
         1733.806     4.132349E-4
         1735.718     4.135949E-4
          1737.63     4.139387E-4
         1739.546     4.142663E-4
         1741.463     4.146501E-4
         1743.383     4.150395E-4
         1745.305     4.154117E-4
         1747.228     4.157665E-4
         1749.154     4.161040E-4
         1751.084     4.160586E-4
         1753.013     4.157107E-4
         1754.946     4.153443E-4
          1756.88     4.149596E-4
         1758.817     4.145566E-4
         1760.756     4.141558E-4
         1762.697     4.137687E-4
         1764.639     4.133624E-4
         1766.585     4.129369E-4
         1768.532     4.124918E-4
         1770.482     4.120400E-4
         1772.434     4.116068E-4
         1774.387     4.111535E-4
         1776.343     4.106802E-4
         1778.301     4.101862E-4
         1780.262     4.096775E-4
         1782.224     4.091887E-4
         1784.189     4.086785E-4
         1786.156     4.081468E-4
         1788.124     4.075939E-4
         1790.096     4.070212E-4
         1792.068     4.064738E-4
         1794.044     4.059037E-4
         1796.022     4.053112E-4
         1798.001     4.046963E-4
         1799.984     4.040579E-4
         1801.968     4.016555E-4
         1803.954     3.991951E-4
         1805.942     3.966918E-4
         1807.933     3.941433E-4
         1809.926     3.915503E-4
         1811.922     3.889533E-4
         1813.919     3.863120E-4
         1815.918     3.836260E-4
          1817.92     3.808920E-4
         1819.925     3.781100E-4
          1821.93     3.753201E-4
         1823.938     3.724823E-4
         1825.948     3.695973E-4
         1827.962     3.666609E-4
         1829.976     3.636781E-4
         1831.995     3.606791E-4
         1834.013     3.576331E-4
         1836.035     3.545346E-4
         1838.059     3.513850E-4
         1840.084     3.481868E-4
         1842.113     3.449663E-4
         1844.144     3.416927E-4
         1846.177     3.383659E-4
         1848.212     3.349854E-4
         1850.248     3.315563E-4
         1852.288     3.280987E-4
          1854.33     3.245852E-4
         1856.375     3.210142E-4
         1858.421     3.173905E-4
         1860.469     3.137153E-4
          1862.52     3.100076E-4
         1864.573     3.062401E-4
         1866.628     3.024137E-4
         1868.686     2.985285E-4
         1870.746     2.945933E-4
         1872.808     2.906144E-4
         1874.872     2.865765E-4
         1876.939     2.824753E-4
         1879.008     2.783115E-4
         1881.079     2.738712E-4
         1883.153     2.693860E-4
         1885.229     2.648438E-4
         1887.307     2.602467E-4
         1889.387     2.555899E-4
         1891.471     2.508877E-4
         1893.555     2.461376E-4
         1895.643     2.413258E-4
         1897.732     2.364549E-4
         1899.823     2.315268E-4
         1901.919     2.293498E-4
         1904.014     2.274036E-4
         1906.113     2.254268E-4
         1908.215     2.234204E-4
         1910.317     2.213880E-4
         1912.424     2.193391E-4
         1914.532     2.172616E-4
         1916.643     2.151517E-4
         1918.755     2.130130E-4
          1920.87     2.108484E-4
         1922.988     2.086611E-4
         1925.107     2.064434E-4
          1927.23     2.041920E-4
         1929.354     2.019110E-4
         1931.481     1.996076E-4
          1933.61     1.972764E-4
          1935.74     1.949140E-4
         1937.875     1.925164E-4
         1940.011     1.900885E-4
         1942.149     1.876366E-4
          1944.29     1.851513E-4
         1946.434     1.826324E-4
          1948.58     1.800798E-4
         1950.728     1.774977E-4
         1952.878     1.748897E-4
          1955.03     1.722484E-4
         1957.185     1.695713E-4
         1959.343     1.668594E-4
         1961.503     1.641169E-4
         1963.665     1.613413E-4
         1965.829     1.585315E-4
         1967.996     1.556849E-4
         1970.167     1.528017E-4
         1972.339     1.498919E-4
         1974.512     1.469473E-4
         1976.689     1.439647E-4
         1978.868     1.409456E-4
         1981.049     1.378919E-4
         1983.233     1.348037E-4
         1985.418     1.316799E-4
         1987.607     1.285170E-4
         1989.798     1.253166E-4
         1991.992     1.216260E-4
         1994.188     1.178463E-4
         1996.386     1.140236E-4
         1998.586     1.101593E-4
         2000.789     1.069671E-4
         2002.996     1.050273E-4
         2005.203     1.030613E-4
         2007.414     1.010660E-4
         2009.627     9.904216E-5
         2011.841     9.634819E-5
          2014.06     9.348366E-5
         2016.279     9.058372E-5
         2018.502     8.764362E-5
         2020.727     8.475091E-5
         2022.955     8.199915E-5
         2025.185     7.921130E-5
         2027.417     7.638696E-5
         2029.652     7.352628E-5
         2031.889     7.109165E-5
         2034.129     6.870992E-5
         2036.371     6.629722E-5
         2038.616     6.385374E-5
         2040.864     6.159429E-5
         2043.112     5.965382E-5
         2045.365     5.768759E-5
         2047.621     5.569527E-5
         2049.877     5.367992E-5
         2052.137     5.245740E-5
         2054.399     5.126660E-5
         2056.664     5.006024E-5
         2058.931     4.883812E-5
         2061.201     4.712753E-5
         2063.472     4.497358E-5
         2065.747     4.279313E-5
         2068.024     4.058673E-5
         2070.304     3.839464E-5
         2072.586     3.643983E-5
         2074.871     3.446270E-5
         2077.157     3.246357E-5
         2079.447     3.044083E-5
          2081.74     2.910547E-5
         2084.034     2.798321E-5
         2086.332     2.684765E-5
         2088.632     2.569907E-5
         2090.933     2.427728E-5
          2093.24     2.245324E-5
         2095.546     2.061173E-5
         2097.856     1.874973E-5
         2100.169     1.691558E-5
         2102.483     1.567249E-5
         2104.802     1.441509E-5
         2107.121     1.314611E-5
         2109.444     1.186335E-5
         2111.769     1.070676E-5
         2114.097     9.582597E-6
         2116.428     8.447389E-6
          2118.76     7.301569E-6
         2121.097     6.432219E-6
         2123.434     5.883287E-6
         2125.775     5.328870E-6
         2128.118     4.769175E-6
         2130.463     4.250639E-6
         2132.813     3.915239E-6
         2135.163     3.577118E-6
         2137.518     3.235593E-6
         2139.875     2.892024E-6
         2142.231     2.674079E-6
         2144.594     2.461016E-6
         2146.958     2.246051E-6
         2149.325     2.029084E-6
         2151.693     1.868385E-6
         2154.065     1.729498E-6
          2156.44     1.589383E-6
         2158.817     1.448019E-6
         2161.197     1.330781E-6
         2163.578     1.237814E-6
         2165.964     1.144007E-6
         2168.353     1.049376E-6
         2170.743     9.639964E-7
         2173.135     9.002266E-7
         2175.529     8.359592E-7
         2177.929     7.711263E-7
         2180.329     7.087413E-7
         2182.733     6.640569E-7
         2185.138     6.190974E-7
         2187.547     5.737927E-7
         2189.959     5.281647E-7
         2192.372     4.960933E-7
         2194.789     4.640408E-7
         2197.208     4.317771E-7
         2199.632     3.992913E-7
         2202.056     3.770578E-7
         2204.482     3.562450E-7
         2206.912     3.349480E-7
         2209.345     3.131742E-7
         2211.782     2.959817E-7
         2214.219     2.803130E-7
          2216.66     2.642940E-7
         2219.104     2.479306E-7
         2221.549     2.344079E-7
         2223.998     2.224554E-7
         2226.449     2.102524E-7
         2228.904     1.977961E-7
         2231.361     1.871310E-7
          2233.82     1.779160E-7
         2236.284     1.685064E-7
         2238.748     1.589198E-7
         2241.217     1.504895E-7
         2243.687     1.433086E-7
         2246.159     1.359894E-7
         2248.636     1.285235E-7
         2251.114     1.218507E-7
         2253.597     1.161938E-7
          2256.08     1.104379E-7
         2258.567     1.045743E-7
         2261.057     9.927092E-8
         2263.548     9.478723E-8
         2266.045     9.021903E-8
         2268.542     8.557532E-8
         2271.042     8.135054E-8
         2273.546     7.776191E-8
         2276.051     7.411388E-8
         2278.562     7.040077E-8
         2281.072     6.702840E-8
         2283.588     6.413764E-8
         2286.104     6.120202E-8
         2288.623     5.821829E-8
         2291.147     5.551570E-8
         2293.672     5.317361E-8
         2296.202     5.079360E-8
         2298.732     4.839728E-8
         2301.266     4.624797E-8
         2303.803     4.435411E-8
         2306.342     4.242962E-8
         2308.885     4.047173E-8
         2311.431     3.874003E-8
