#  Table wf2f791wsys.tab  Mon 12:21:54 02-Jun-97

#      WAVELENGTH      THROUGHPUT
#       angstroms                

            1850.     2.712839E-7
         1851.651     2.338935E-7
         1853.301     1.961762E-7
         1854.956     1.580210E-7
         1856.611     1.195498E-7
         1858.267     8.070740E-8
         1859.925     4.146878E-8
         1861.584     6.025959E-8
         1863.246     8.200907E-8
         1864.909     1.039661E-7
         1866.572     1.261156E-7
         1868.237     1.484743E-7
         1869.904     1.710551E-7
         1871.573     2.493237E-7
         1873.242     3.316952E-7
         1874.913     4.148440E-7
         1876.585     4.987797E-7
          1878.26     5.835686E-7
         1879.937     6.688953E-7
         1881.613     7.436498E-7
         1883.292     8.185784E-7
         1884.973     8.941531E-7
         1886.654     9.702879E-7
         1888.338     1.047079E-6
         1890.023     1.124856E-6
         1891.709     1.230703E-6
         1893.396     1.337410E-6
         1895.086     1.445034E-6
         1896.775     1.553384E-6
         1898.469     1.662798E-6
         1900.163     1.749682E-6
         1901.857     1.617793E-6
         1903.555     1.484580E-6
         1905.254     1.350202E-6
         1906.953     1.214751E-6
         1908.655     1.078050E-6
         1910.357     9.400486E-7
         1912.061     8.000473E-7
         1913.768     6.587650E-7
         1915.476     5.162681E-7
         1917.184     3.726454E-7
         1918.894     2.278021E-7
         1920.606     1.258389E-7
          1922.32     1.038777E-7
         1924.035     8.172882E-8
         1925.752     5.940296E-8
          1927.47     3.687578E-8
         1929.189     1.417071E-8
          1930.91     1.914189E-8
         1932.634     4.910747E-8
         1934.358     7.932399E-8
         1936.084     1.097727E-7
         1937.811     1.404777E-7
          1939.54     1.714553E-7
          1941.27     2.133063E-7
         1943.003     2.594026E-7
         1944.737     3.058817E-7
          1946.47     3.526854E-7
         1948.207     3.999299E-7
         1949.947     4.475874E-7
         1951.685     3.838058E-7
         1953.427     3.158668E-7
         1955.171     2.473499E-7
         1956.913     1.783359E-7
          1958.66     1.086540E-7
         1960.408     5.650714E-8
         1962.157     6.372176E-8
         1963.908     7.099991E-8
         1965.658     7.832804E-8
         1967.413     8.572415E-8
         1969.169     9.318029E-8
         1970.925     9.312379E-8
         1972.684     8.622810E-8
         1974.444     7.927662E-8
         1976.205     7.226490E-8
         1977.969     6.518442E-8
         1979.734     5.805165E-8
           1981.5     4.919129E-8
         1983.268     3.995262E-8
         1985.037     3.064120E-8
         1986.809     2.124654E-8
         1988.581     1.177943E-8
         1990.355     4.820152E-9
         1992.131     8.198758E-9
         1993.908     1.160507E-8
         1995.688     1.504342E-8
         1997.467     1.850324E-8
          1999.25     2.199527E-8
         2001.034     2.670333E-8
         2002.818     3.231437E-8
         2004.606     3.798910E-8
         2006.396     4.371433E-8
         2008.184     4.948584E-8
         2009.976     5.531849E-8
         2011.769     5.316675E-8
         2013.565     5.088330E-8
         2015.362     4.857621E-8
         2017.158     4.624837E-8
         2018.958     4.389397E-8
          2020.76     4.052575E-8
         2022.563     3.576408E-8
         2024.368     3.095285E-8
         2026.173     2.609836E-8
         2027.982     2.119383E-8
         2029.791     1.624533E-8
         2031.602     1.377589E-8
         2033.414     1.161618E-8
         2035.228     9.435863E-9
         2037.044     7.233517E-9
         2038.861     5.011711E-9
         2040.681     3.801662E-9
         2042.502     4.318188E-9
         2044.324     4.839094E-9
         2046.147     5.364644E-9
         2047.974     5.895245E-9
           2049.8     6.430247E-9
          2051.63     7.483964E-9
         2053.461     8.610416E-9
         2055.291     9.745589E-9
         2057.125     1.089211E-8
         2058.961     1.204880E-8
         2060.798     1.221840E-8
         2062.637     1.108483E-8
         2064.477     9.941542E-9
         2066.318     8.787897E-9
         2068.164     7.622297E-9
         2070.007     6.457635E-9
         2071.855     7.728891E-9
         2073.704     9.010978E-9
         2075.553     1.030326E-8
         2077.405     1.160644E-8
         2079.259     1.292180E-8
         2081.113     2.622375E-8
         2082.971     4.766509E-8
         2084.829     6.927495E-8
         2086.688     9.106530E-8
          2088.55     1.130542E-7
         2090.414     1.289245E-7
         2092.279     1.227692E-7
         2094.145     1.165614E-7
         2096.014     1.102944E-7
         2097.885     1.039737E-7
         2099.756     9.760237E-8
          2101.63     8.353281E-8
         2103.503     6.821618E-8
         2105.381     5.275828E-8
          2107.26     3.717249E-8
         2109.139     2.147051E-8
         2111.022     2.221328E-8
         2112.906     3.698645E-8
         2114.789     5.185490E-8
         2116.677     6.685764E-8
         2118.564     8.196609E-8
         2120.455     9.043638E-8
         2122.348     7.755539E-8
         2124.241     6.458669E-8
         2126.135     5.151826E-8
         2128.033     3.834458E-8
         2129.932     2.507028E-8
         2131.832     2.338343E-8
         2133.734     2.211667E-8
         2135.637     2.084067E-8
         2137.544     1.955357E-8
          2139.45     1.826293E-8
         2141.359     1.621760E-8
          2143.27     1.385238E-8
         2145.182     1.147066E-8
         2147.096     9.069959E-9
         2149.011     6.652935E-9
         2150.929     6.891562E-9
         2152.848     9.987393E-9
         2154.768     1.310473E-8
         2156.692     1.624766E-8
         2158.615     1.940629E-8
         2160.541     2.290493E-8
         2162.469     2.723250E-8
         2164.397     3.158269E-8
          2166.33     3.596939E-8
         2168.263     4.038228E-8
         2170.196     4.365548E-8
         2172.133     3.661029E-8
          2174.07     2.952707E-8
         2176.011     2.239494E-8
         2177.953     1.521906E-8
         2179.895     8.004722E-9
          2181.84     1.929528E-8
         2183.787     3.171647E-8
         2185.735     4.420102E-8
         2187.686     5.676171E-8
         2189.637     6.938463E-8
          2191.59     6.769498E-8
         2193.546     6.269703E-8
         2195.503     5.767378E-8
         2197.462     5.262701E-8
         2199.423     4.755035E-8
         2201.385     5.356462E-8
         2203.348     6.434983E-8
         2205.315     7.531154E-8
         2207.283     8.644259E-8
         2209.252     9.773674E-8
         2211.222     9.188594E-8
         2213.196     7.523407E-8
          2215.17     5.832826E-8
         2217.147     4.114217E-8
         2219.125     2.368696E-8
         2221.104     1.496249E-8
         2223.086     1.327433E-8
         2225.071     1.155871E-8
         2227.055     9.819785E-9
         2229.042     8.052093E-9
         2231.031     7.064873E-9
         2233.021     6.817846E-9
         2235.015     6.566422E-9
         2237.008     6.311196E-9
         2239.003     6.051814E-9
         2241.002     7.417364E-9
         2242.999     1.043024E-8
         2245.002     1.348939E-8
         2247.005     1.658610E-8
         2249.009     1.972424E-8
         2251.016     2.192705E-8
         2253.024     2.319650E-8
         2255.033     2.448112E-8
         2257.046     2.578193E-8
         2259.061     2.709805E-8
         2261.075     2.544907E-8
         2263.092     2.115703E-8
         2265.112     1.680604E-8
         2267.134     1.239843E-8
         2269.156     7.937201E-9
         2271.181     6.383469E-9
         2273.207     6.944491E-9
         2275.234     7.512025E-9
         2277.266     8.086795E-9
         2279.296     8.666953E-9
          2281.33     1.083686E-8
         2283.366     1.387438E-8
         2285.402     1.694370E-8
         2287.441     2.005233E-8
         2289.483     2.319639E-8
         2291.525     2.874587E-8
          2293.57     3.517146E-8
         2295.615     4.166100E-8
         2297.663     4.824465E-8
         2299.715     5.491270E-8
         2301.765     5.426942E-8
          2303.82     5.241603E-8
         2305.876     5.053791E-8
         2307.932     4.863612E-8
         2309.992     4.670805E-8
         2312.051     3.944553E-8
         2314.116     3.206283E-8
          2316.18     2.460142E-8
         2318.246     1.705404E-8
         2320.315     1.091858E-8
         2322.385     1.314736E-8
         2324.457     1.540216E-8
         2326.531     1.768017E-8
         2328.606     1.998308E-8
         2330.685     2.058731E-8
         2332.764     1.766795E-8
         2334.845     1.471519E-8
         2336.927     1.172958E-8
         2339.012     8.710642E-9
         2341.101     1.340500E-8
         2343.188     2.513306E-8
         2345.279     3.698764E-8
         2347.372     4.897487E-8
         2349.467     6.108700E-8
         2351.562     5.858007E-8
         2353.661     5.098094E-8
         2355.759     4.331100E-8
         2357.862     3.554946E-8
         2359.966     2.770664E-8
         2362.071     2.391582E-8
         2364.179     2.015184E-8
         2366.288     1.635152E-8
         2368.398     1.251209E-8
         2370.512     1.037599E-8
         2372.628     1.370671E-8
         2374.744     1.706753E-8
         2376.863     2.046281E-8
         2378.983     2.388879E-8
         2381.105     2.364999E-8
          2383.23     1.998716E-8
         2385.357     1.628894E-8
         2387.485     1.255694E-8
         2389.615     8.789321E-9
         2391.747     8.313108E-9
         2393.881     8.570419E-9
         2396.017     8.830002E-9
         2398.154     9.091534E-9
         2400.293     9.617088E-9
         2402.435     1.180480E-8
          2404.58     1.401215E-8
         2406.724     1.623743E-8
         2408.872     1.848349E-8
         2411.022     2.135154E-8
         2413.171     2.490757E-8
         2415.326     2.850058E-8
         2417.479     3.211721E-8
         2419.637     3.576946E-8
         2421.796     3.207592E-8
         2423.957     2.685537E-8
          2426.12     2.158674E-8
         2428.284     1.627643E-8
         2430.451     1.286757E-8
         2432.619     1.688550E-8
         2434.789     2.093589E-8
         2436.962     2.502207E-8
         2439.136     2.914096E-8
         2441.312     3.745017E-8
          2443.49     4.857392E-8
          2445.67     5.979308E-8
         2447.853     7.110297E-8
         2450.036     8.204296E-8
         2452.222     6.634895E-8
         2454.409     5.052869E-8
           2456.6     3.457104E-8
         2458.792     1.848794E-8
         2460.985     2.031684E-8
          2463.18     4.436563E-8
         2465.379     6.861728E-8
         2467.579     9.305371E-8
         2469.778     1.176480E-7
         2471.983     1.087447E-7
          2474.19     9.597726E-8
         2476.396     8.313265E-8
         2478.606     7.017209E-8
         2480.817     5.773579E-8
         2483.029     4.625995E-8
         2485.247     3.468073E-8
         2487.462     2.303488E-8
         2489.682     1.128625E-8
         2491.904     1.005215E-8
         2494.125     1.058545E-8
         2496.353     1.112357E-8
         2498.579     1.166487E-8
         2500.808     1.268139E-8
          2503.04     1.453840E-8
         2505.272     1.640779E-8
         2507.509     1.829227E-8
         2509.745     2.018901E-8
         2511.985     2.492993E-8
         2514.225     3.006757E-8
         2516.468     3.524352E-8
         2518.714     4.046016E-8
         2520.962     4.073843E-8
          2523.21     3.434003E-8
         2525.462     2.788924E-8
         2527.715     2.139429E-8
         2529.971     1.484657E-8
         2532.229     1.538271E-8
         2534.486     1.601595E-8
         2536.748     1.665435E-8
          2539.01     1.726900E-8
         2541.277     1.823226E-8
         2543.545     1.947041E-8
         2545.813     2.071232E-8
         2548.084     2.195863E-8
         2550.358     2.337984E-8
         2552.635     2.571717E-8
         2554.911     2.806121E-8
         2557.191     3.041545E-8
         2559.471     3.277529E-8
         2561.755     4.243951E-8
         2564.042     5.434415E-8
         2566.329     6.628615E-8
         2568.619     7.827801E-8
         2570.908     8.361911E-8
         2573.205     7.879027E-8
           2575.5     7.394910E-8
         2577.797     6.908795E-8
         2580.097     6.391436E-8
         2582.399     5.213046E-8
         2584.704     4.029274E-8
          2587.01     2.841142E-8
         2589.318     1.649050E-8
         2591.629     1.345040E-8
          2593.94     1.414793E-8
         2596.254     1.484782E-8
         2598.573     1.555111E-8
         2600.889     1.579492E-8
          2603.21     1.529735E-8
         2605.532     1.479801E-8
         2607.856     1.429654E-8
         2610.185     1.449337E-8
         2612.512     2.282833E-8
         2614.843     3.120459E-8
         2617.177     3.961326E-8
          2619.51     4.804361E-8
         2621.849     4.520766E-8
         2624.188     3.936152E-8
         2626.528     3.349244E-8
         2628.873     2.759623E-8
         2631.217     2.424487E-8
         2633.566     2.325982E-8
         2635.916     2.227065E-8
         2638.267     2.127790E-8
          2640.62     1.996284E-8
         2642.977     1.775037E-8
         2645.334     1.553027E-8
         2647.695     1.330008E-8
         2650.057     1.115800E-8
         2652.422     1.289252E-8
         2654.788     1.463249E-8
         2657.157     1.638020E-8
         2659.526     1.813238E-8
         2661.899     3.675404E-8
         2664.275     5.966797E-8
         2666.652     8.265715E-8
         2669.031     1.057471E-7
         2671.412     1.005696E-7
         2673.796     7.586946E-8
         2676.181     5.108939E-8
          2678.57     2.619697E-8
          2680.96     2.216449E-8
          2683.35     4.937760E-8
         2685.746     7.674368E-8
          2688.14     1.041646E-7
          2690.54     1.238520E-7
         2692.941     1.164199E-7
         2695.343     1.089612E-7
         2697.748     1.014684E-7
         2700.153     9.353420E-8
         2702.563     7.932508E-8
         2704.975     6.501657E-8
         2707.387     5.061576E-8
         2709.804     3.610346E-8
         2712.222     3.322408E-8
         2714.642     3.136423E-8
         2717.063     2.949107E-8
         2719.486     2.760419E-8
         2721.915     2.793261E-8
         2724.343     2.886253E-8
         2726.772     2.979838E-8
         2729.205     3.074016E-8
          2731.64     3.238947E-8
         2734.078     3.439083E-8
         2736.517     3.640417E-8
         2738.958     3.843054E-8
         2741.402     3.614001E-8
         2743.849     3.060125E-8
         2746.296     2.502773E-8
         2748.747     1.941216E-8
         2751.198     1.945304E-8
         2753.653     2.545291E-8
         2756.111     3.146580E-8
         2758.569     3.748816E-8
         2761.031     3.830614E-8
         2763.495     3.186730E-8
         2765.958     2.542226E-8
         2768.427     1.895566E-8
         2770.898     1.524373E-8
         2773.369     1.638137E-8
         2775.844     1.752209E-8
          2778.32     1.866457E-8
         2780.799     2.015339E-8
          2783.28     2.237064E-8
         2785.764     2.459275E-8
         2788.249     2.681795E-8
         2790.736     2.888451E-8
         2793.227     3.056682E-8
          2795.72     3.225255E-8
         2798.213     3.394073E-8
         2800.709     3.947319E-8
         2803.209     5.471524E-8
         2805.709     6.997895E-8
         2808.213     8.528381E-8
         2810.718     9.052999E-8
         2813.226     7.064662E-8
         2815.736     5.073582E-8
         2818.247     3.078594E-8
         2820.764     2.115640E-8
         2823.278     3.534453E-8
         2825.798     4.957771E-8
          2828.32     6.383808E-8
         2830.843     7.576094E-8
         2833.369     8.300688E-8
         2835.898     9.026713E-8
         2838.426     9.753186E-8
         2840.959     9.347371E-8
         2843.495     7.076451E-8
         2846.031     4.802697E-8
         2848.571     2.523039E-8
         2851.112     1.569005E-8
         2853.655     2.322873E-8
         2856.202     3.078530E-8
         2858.751     3.835547E-8
         2861.301     3.822104E-8
         2863.853     3.066693E-8
         2866.407     2.309878E-8
         2868.965     1.551220E-8
         2871.526     1.471413E-8
         2874.087     1.853021E-8
         2876.652     2.235574E-8
         2879.218     2.618526E-8
         2881.788     2.494619E-8
         2884.358     2.148242E-8
         2886.931     1.801243E-8
         2889.507     1.453457E-8
         2892.084     1.638652E-8
         2894.666     1.950620E-8
         2897.248     2.262956E-8
         2899.832     2.575777E-8
         2902.421     2.267352E-8
          2905.01     1.916740E-8
         2907.601     1.566756E-8
         2910.198     1.248107E-8
          2912.79     1.307325E-8
         2915.392     1.366567E-8
         2917.992     1.425611E-8
         2920.594     1.487198E-8
         2923.203     1.557755E-8
         2925.807     1.627993E-8
          2928.42     1.698246E-8
         2931.033     1.865330E-8
         2933.646     2.180006E-8
         2936.266     2.494582E-8
         2938.885     2.808086E-8
         2941.506     3.158468E-8
         2944.131     3.536096E-8
         2946.757     3.912669E-8
         2949.387     4.288636E-8
         2952.018     3.759016E-8
         2954.653     2.955648E-8
          2957.29     2.154012E-8
         2959.926     1.355080E-8
         2962.567     2.912651E-8
          2965.21     4.533915E-8
         2967.856     6.152294E-8
         2970.505     7.227172E-8
         2973.155     6.010257E-8
         2975.808     4.795295E-8
         2978.461     3.584644E-8
         2981.121     2.811593E-8
          2983.78     2.640473E-8
         2986.441     2.469737E-8
         2989.104     2.299402E-8
         2991.772     2.643037E-8
         2994.442     3.245069E-8
         2997.113     3.845300E-8
         2999.788     4.444432E-8
         3002.464     3.801786E-8
         3005.142     3.054262E-8
         3007.826     2.307614E-8
         3010.507     1.732132E-8
         3013.194     1.877976E-8
         3015.883     2.023440E-8
         3018.573     2.168427E-8
         3021.267     2.226946E-8
          3023.96     2.188340E-8
          3026.66     2.149747E-8
          3029.36     2.111283E-8
         3032.062     3.601036E-8
          3034.77     5.563103E-8
         3037.475     7.516388E-8
         3040.186     9.181952E-8
         3042.897     6.983515E-8
         3045.612     4.790752E-8
         3048.332     2.601143E-8
         3051.051     1.319542E-8
         3053.772     1.468394E-8
         3056.497     1.616926E-8
         3059.222     1.764833E-8
         3061.954     3.655608E-8
         3064.685     6.231236E-8
         3067.418     8.799763E-8
         3070.156     1.111722E-7
         3072.896     9.376642E-8
         3075.637     7.641903E-8
          3078.38     5.912252E-8
         3081.126     4.886900E-8
         3083.877     4.869772E-8
         3086.628     4.852669E-8
         3089.381     4.835573E-8
         3092.137     6.283425E-8
         3094.895     8.150758E-8
         3097.659     1.001470E-7
         3100.422     1.114823E-7
         3103.187     8.259947E-8
         3105.955     5.360861E-8
         3108.729     2.447347E-8
         3111.501     1.839516E-8
