#  Table wf2f622wsys.tab  Mon 12:21:49 02-Jun-97

#      WAVELENGTH      THROUGHPUT
#       angstroms                

            1850.     1.206510E-6
         1851.651     4.669653E-7
         1853.301     1.462997E-7
         1854.956     1.448021E-7
         1856.611     4.365482E-7
         1858.267     8.062134E-7
         1859.925     3.062467E-7
         1861.584     2.077121E-7
         1863.246     2.785739E-7
         1864.909     3.377989E-7
         1866.572     4.114326E-7
         1868.237     5.836271E-7
         1869.904     5.776924E-7
         1871.573     2.183461E-7
         1873.242     1.139136E-7
         1874.913     2.899511E-7
         1876.585     4.536364E-7
          1878.26     3.076183E-7
         1879.937     1.743990E-7
         1881.613     2.448810E-7
         1883.292     1.883411E-7
         1884.973     1.090403E-7
         1886.654     6.455482E-8
         1888.338     6.718486E-8
         1890.023     1.243469E-7
         1891.709     3.624718E-7
         1893.396     3.836689E-7
         1895.086     2.956890E-7
         1896.775     1.839299E-7
         1898.469     9.184252E-8
         1900.163     2.130581E-8
         1901.857     4.918074E-9
         1903.555     5.811053E-9
         1905.254     4.688641E-8
         1906.953     6.738183E-8
         1908.655     4.456125E-8
         1910.357     5.446607E-9
         1912.061     3.589951E-9
         1913.768     4.123984E-9
         1915.476     3.186527E-9
         1917.184     3.390652E-9
         1918.894     1.481274E-8
         1920.606     3.909467E-8
          1922.32     6.108488E-8
         1924.035     4.807244E-8
         1925.752     4.932611E-8
          1927.47     5.044823E-8
         1929.189     9.683614E-8
          1930.91     1.160870E-7
         1932.634     7.628626E-8
         1934.358     2.014164E-8
         1936.084     1.163964E-8
         1937.811     1.450755E-8
          1939.54     3.419189E-8
          1941.27     4.297836E-8
         1943.003     2.789845E-8
         1944.737     1.031635E-8
          1946.47     1.860773E-8
         1948.207     6.593302E-8
         1949.947     1.985916E-7
         1951.685     1.784771E-7
         1953.427     1.315244E-7
         1955.171     6.532652E-8
         1956.913     2.319388E-8
          1958.66     1.588699E-8
         1960.408     1.590588E-8
         1962.157     6.122719E-9
         1963.908     1.131630E-8
         1965.658     6.876841E-8
         1967.413     1.248972E-7
         1969.169     1.330848E-7
         1970.925     8.742736E-8
         1972.684     3.206713E-8
         1974.444     1.093704E-8
         1976.205     1.025386E-8
         1977.969     2.010114E-8
         1979.734     1.558315E-8
           1981.5     1.752170E-8
         1983.268     8.688441E-8
         1985.037     2.155740E-7
         1986.809     2.968335E-7
         1988.581     2.719536E-7
         1990.355     2.041242E-7
         1992.131     1.396636E-7
         1993.908     8.701146E-8
         1995.688     5.465873E-8
         1997.467     5.084586E-8
          1999.25     7.264353E-8
         2001.034     9.703574E-8
         2002.818     1.126946E-7
         2004.606     1.115415E-7
         2006.396     7.740663E-8
         2008.184     1.351800E-8
         2009.976     8.218549E-9
         2011.769     3.388858E-8
         2013.565     5.221660E-8
         2015.362     5.120514E-8
         2017.158     4.228707E-8
         2018.958     3.087287E-8
          2020.76     2.357968E-8
         2022.563     2.140819E-8
         2024.368     1.690038E-8
         2026.173     2.536867E-8
         2027.982     6.270353E-8
         2029.791     8.094700E-8
         2031.602     5.569195E-8
         2033.414     4.466494E-8
         2035.228     4.930828E-8
         2037.044     5.435283E-8
         2038.861     5.550027E-8
         2040.681     5.468648E-8
         2042.502     5.166754E-8
         2044.324     5.342045E-8
         2046.147     7.824207E-8
         2047.974     1.066137E-7
           2049.8     9.118423E-8
          2051.63     7.795061E-8
         2053.461     7.857188E-8
         2055.291     6.378134E-8
         2057.125     4.239756E-8
         2058.961     2.933140E-8
         2060.798     3.057035E-8
         2062.637     3.647957E-8
         2064.477     3.164133E-8
         2066.318     2.460208E-8
         2068.164     2.039781E-8
         2070.007     8.043446E-9
         2071.855     4.471044E-9
         2073.704     1.129829E-8
         2075.553     3.854583E-8
         2077.405     3.784906E-8
         2079.259     2.408689E-8
         2081.113     1.610007E-8
         2082.971     1.194009E-8
         2084.829     8.149733E-9
         2086.688     8.920615E-9
          2088.55     1.491429E-8
         2090.414     2.155144E-8
         2092.279     2.972195E-8
         2094.145     3.616816E-8
         2096.014     2.368555E-8
         2097.885     9.632404E-9
         2099.756     7.692193E-9
          2101.63     1.206800E-8
         2103.503     8.289974E-9
         2105.381     6.640156E-9
          2107.26     9.166409E-9
         2109.139     7.674599E-9
         2111.022     6.186764E-9
         2112.906     1.746691E-8
         2114.789     3.682329E-8
         2116.677     4.273949E-8
         2118.564     3.614004E-8
         2120.455     4.441106E-8
         2122.348     5.742057E-8
         2124.241     5.357585E-8
         2126.135     3.047822E-8
         2128.033     1.234997E-8
         2129.932     1.237158E-8
         2131.832     2.511003E-8
         2133.734     2.004166E-8
         2135.637     9.703505E-9
         2137.544     8.748866E-9
          2139.45     2.198768E-8
         2141.359     4.232662E-8
          2143.27     5.094339E-8
         2145.182     4.541122E-8
         2147.096     3.191604E-8
         2149.011     1.717513E-8
         2150.929     1.017495E-8
         2152.848     1.207091E-8
         2154.768     1.276839E-8
         2156.692     9.024782E-9
         2158.615     8.936117E-9
         2160.541     1.399084E-8
         2162.469     1.945296E-8
         2164.397     2.079928E-8
          2166.33     1.175756E-8
         2168.263     6.148531E-9
         2170.196     6.101904E-9
         2172.133     8.515277E-9
          2174.07     9.857978E-9
         2176.011     5.466126E-9
         2177.953     7.796102E-9
         2179.895     1.609031E-8
          2181.84     1.728678E-8
         2183.787     2.862718E-8
         2185.735     3.548700E-8
         2187.686     2.367894E-8
         2189.637     1.814775E-8
          2191.59     1.993192E-8
         2193.546     2.614323E-8
         2195.503     2.235270E-8
         2197.462     1.716454E-8
         2199.423     1.545578E-8
         2201.385     1.361374E-8
         2203.348     8.983843E-9
         2205.315     8.675926E-9
         2207.283     1.546193E-8
         2209.252     2.431880E-8
         2211.222     3.565487E-8
         2213.196     4.086993E-8
          2215.17     4.063108E-8
         2217.147     3.090448E-8
         2219.125     1.710136E-8
         2221.104     1.191491E-8
         2223.086     1.358510E-8
         2225.071     1.757848E-8
         2227.055     1.571694E-8
         2229.042     1.017837E-8
         2231.031     1.146912E-8
         2233.021     1.257020E-8
         2235.015     8.369462E-9
         2237.008     5.826560E-9
         2239.003     6.575047E-9
         2241.002     1.252374E-8
         2242.999     2.060478E-8
         2245.002     1.823565E-8
         2247.005     1.040001E-8
         2249.009     9.134481E-9
         2251.016     1.299260E-8
         2253.024     1.743601E-8
         2255.033     1.978185E-8
         2257.046     1.700097E-8
         2259.061     1.363128E-8
         2261.075     1.390710E-8
         2263.092     1.581852E-8
         2265.112     1.492605E-8
         2267.134     1.277225E-8
         2269.156     1.014636E-8
         2271.181     7.188804E-9
         2273.207     8.387830E-9
         2275.234     1.407905E-8
         2277.266     2.111464E-8
         2279.296     2.558800E-8
          2281.33     2.705210E-8
         2283.366     1.993024E-8
         2285.402     1.127601E-8
         2287.441     1.159786E-8
         2289.483     2.563159E-8
         2291.525     4.547595E-8
          2293.57     5.061250E-8
         2295.615     3.864662E-8
         2297.663     2.864584E-8
         2299.715     2.154446E-8
         2301.765     1.224477E-8
          2303.82     8.065623E-9
         2305.876     1.062678E-8
         2307.932     1.396457E-8
         2309.992     1.368532E-8
         2312.051     1.938048E-8
         2314.116     2.572447E-8
          2316.18     1.772373E-8
         2318.246     1.690394E-8
         2320.315     3.020314E-8
         2322.385     3.955838E-8
         2324.457     3.194608E-8
         2326.531     1.536536E-8
         2328.606     9.618787E-9
         2330.685     8.109416E-9
         2332.764     7.357973E-9
         2334.845     7.394994E-9
         2336.927     8.333283E-9
         2339.012     9.510025E-9
         2341.101     8.467084E-9
         2343.188     7.543075E-9
         2345.279     7.579954E-9
         2347.372     7.616927E-9
         2349.467     7.653973E-9
         2351.562     7.690608E-9
         2353.661     7.727189E-9
         2355.759     7.763790E-9
         2357.862     7.800511E-9
         2359.966     7.837301E-9
         2362.071     7.873498E-9
         2364.179     8.068693E-9
         2366.288     1.126360E-8
         2368.398     2.346941E-8
         2370.512     3.376107E-8
         2372.628     2.299335E-8
         2374.744     1.136831E-8
         2376.863     2.299603E-8
         2378.983     4.920402E-8
         2381.105     5.634089E-8
          2383.23     4.873962E-8
         2385.357     4.613454E-8
         2387.485     4.803934E-8
         2389.615     5.194933E-8
         2391.747     5.243529E-8
         2393.881     5.308748E-8
         2396.017     6.824732E-8
         2398.154     8.650454E-8
         2400.293     7.274812E-8
         2402.435     5.689614E-8
          2404.58     6.111861E-8
         2406.724     6.380623E-8
         2408.872     6.415495E-8
         2411.022     7.415319E-8
         2413.171     8.232478E-8
         2415.326     7.534324E-8
         2417.479     6.265402E-8
         2419.637     5.017565E-8
         2421.796     5.231778E-8
         2423.957     5.017676E-8
          2426.12     3.778372E-8
         2428.284     3.597553E-8
         2430.451     4.348568E-8
         2432.619     5.095832E-8
         2434.789     5.993008E-8
         2436.962     6.617637E-8
         2439.136     5.824350E-8
         2441.312     5.182683E-8
          2443.49     5.232311E-8
          2445.67     4.472941E-8
         2447.853     3.123101E-8
         2450.036     2.327471E-8
         2452.222     3.072036E-8
         2454.409     3.343533E-8
           2456.6     2.156913E-8
         2458.792     1.703910E-8
         2460.985     1.522494E-8
          2463.18     1.252877E-8
         2465.379     1.138168E-8
         2467.579     1.298087E-8
         2469.778     2.227189E-8
         2471.983     2.100940E-8
          2474.19     1.362899E-8
         2476.396     9.748605E-9
         2478.606     1.110203E-8
         2480.817     2.234445E-8
         2483.029     4.226356E-8
         2485.247     4.366187E-8
         2487.462     3.088828E-8
         2489.682     2.077054E-8
         2491.904     2.293335E-8
         2494.125     2.011066E-8
         2496.353     1.696408E-8
         2498.579     2.645891E-8
         2500.808     2.720057E-8
          2503.04     3.470387E-8
         2505.272     5.173140E-8
         2507.509     5.295340E-8
         2509.745     5.268658E-8
         2511.985     5.947387E-8
         2514.225     5.853219E-8
         2516.468     4.144436E-8
         2518.714     3.178220E-8
         2520.962     3.788677E-8
          2523.21     3.680033E-8
         2525.462     2.414945E-8
         2527.715     1.872749E-8
         2529.971     1.649342E-8
         2532.229     1.741367E-8
         2534.486     3.400025E-8
         2536.748     3.605647E-8
          2539.01     3.276379E-8
         2541.277     3.171054E-8
         2543.545     1.602159E-8
         2545.813     1.078398E-8
         2548.084     1.072642E-8
         2550.358     1.500739E-8
         2552.635     3.382225E-8
         2554.911     4.422053E-8
         2557.191     3.645657E-8
         2559.471     3.310157E-8
         2561.755     2.925509E-8
         2564.042     2.097667E-8
         2566.329     2.671392E-8
         2568.619     2.238966E-8
         2570.908     1.786362E-8
         2573.205     2.306002E-8
           2575.5     3.533290E-8
         2577.797     3.669449E-8
         2580.097     4.030660E-8
         2582.399     5.215336E-8
         2584.704     4.655815E-8
          2587.01     3.974979E-8
         2589.318     4.913545E-8
         2591.629     5.911652E-8
          2593.94     4.837915E-8
         2596.254     4.919420E-8
         2598.573     5.604462E-8
         2600.889     5.867258E-8
          2603.21     5.516271E-8
         2605.532     4.132216E-8
         2607.856     3.719477E-8
         2610.185     4.903051E-8
         2612.512     5.534724E-8
         2614.843     4.878966E-8
         2617.177     3.507722E-8
          2619.51     3.209638E-8
         2621.849     3.699130E-8
         2624.188     5.032599E-8
         2626.528     4.839636E-8
         2628.873     3.986283E-8
         2631.217     3.476304E-8
         2633.566     3.806256E-8
         2635.916     3.381394E-8
         2638.267     2.062665E-8
          2640.62     1.593111E-8
         2642.977     2.163808E-8
         2645.334     3.047193E-8
         2647.695     3.736193E-8
         2650.057     4.339983E-8
         2652.422     3.626541E-8
         2654.788     2.741766E-8
         2657.157     2.941287E-8
         2659.526     2.516976E-8
         2661.899     2.520202E-8
         2664.275     3.578192E-8
         2666.652     4.491672E-8
         2669.031     5.064998E-8
         2671.412     4.925175E-8
         2673.796     5.242552E-8
         2676.181     5.065195E-8
          2678.57     2.763304E-8
          2680.96     2.757870E-8
          2683.35     4.037654E-8
         2685.746     5.027945E-8
          2688.14     4.870835E-8
          2690.54     5.454607E-8
         2692.941     6.261141E-8
         2695.343     3.670251E-8
         2697.748     2.273314E-8
         2700.153     2.456266E-8
         2702.563     1.945492E-8
         2704.975     2.068616E-8
         2707.387     3.238262E-8
         2709.804     4.781782E-8
         2712.222     6.570458E-8
         2714.642     6.759344E-8
         2717.063     5.513223E-8
         2719.486     4.145971E-8
         2721.915     2.610310E-8
         2724.343     5.353892E-8
         2726.772     7.440299E-8
         2729.205     5.246179E-8
          2731.64     4.025375E-8
         2734.078     5.238192E-8
         2736.517     4.612463E-8
         2738.958     3.137227E-8
         2741.402     3.193809E-8
         2743.849     3.166436E-8
         2746.296     3.616378E-8
         2748.747     2.975518E-8
         2751.198     2.728413E-8
         2753.653     4.400069E-8
         2756.111     3.172122E-8
         2758.569     3.299710E-8
         2761.031     4.863929E-8
         2763.495     5.452029E-8
         2765.958     6.557847E-8
         2768.427     5.767957E-8
         2770.898     3.254350E-8
         2773.369     3.719613E-8
         2775.844     7.294054E-8
          2778.32     6.734109E-8
         2780.799     4.699947E-8
          2783.28     4.998340E-8
         2785.764     6.548713E-8
         2788.249     6.977371E-8
         2790.736     7.652836E-8
         2793.227     7.465975E-8
          2795.72     6.618001E-8
         2798.213     6.704257E-8
         2800.709     5.953405E-8
         2803.209     5.201411E-8
         2805.709     5.380089E-8
         2808.213     4.680427E-8
         2810.718     5.259106E-8
         2813.226     3.989836E-8
         2815.736     3.325691E-8
         2818.247     3.199267E-8
         2820.764     5.691528E-8
         2823.278     8.655013E-8
         2825.798     8.677772E-8
          2828.32     7.674409E-8
         2830.843     7.834172E-8
         2833.369     9.607666E-8
         2835.898     8.534778E-8
         2838.426     6.182129E-8
         2840.959     3.914616E-8
         2843.495     3.379280E-8
         2846.031     4.215969E-8
         2848.571     5.914023E-8
         2851.112     5.849077E-8
         2853.655     5.079818E-8
         2856.202     7.025806E-8
         2858.751     7.617690E-8
         2861.301     5.835903E-8
         2863.853     3.531621E-8
         2866.407     3.710315E-8
         2868.965     6.372847E-8
         2871.526     6.905083E-8
         2874.087     6.022143E-8
         2876.652     5.361072E-8
         2879.218     4.909799E-8
         2881.788     6.669568E-8
         2884.358     6.907477E-8
         2886.931     6.006918E-8
         2889.507     6.071539E-8
         2892.084     6.247969E-8
         2894.666     6.650782E-8
         2897.248     7.125598E-8
         2899.832     8.716206E-8
         2902.421     6.594468E-8
          2905.01     4.337435E-8
         2907.601     4.845932E-8
         2910.198     6.554442E-8
          2912.79     6.735782E-8
         2915.392     8.633926E-8
         2917.992     8.975105E-8
         2920.594     6.077908E-8
         2923.203     4.670061E-8
         2925.807     5.222346E-8
          2928.42     4.864791E-8
         2931.033     4.220857E-8
         2933.646     3.727431E-8
         2936.266     5.027059E-8
         2938.885     6.725998E-8
         2941.506     7.263083E-8
         2944.131     7.475627E-8
         2946.757     6.120873E-8
         2949.387     5.170503E-8
         2952.018     4.313030E-8
         2954.653     3.706512E-8
          2957.29     3.498591E-8
         2959.926     2.472483E-8
         2962.567     4.134299E-8
          2965.21     4.165789E-8
         2967.856     3.379954E-8
         2970.505     1.727782E-8
         2973.155     1.235326E-8
         2975.808     1.512625E-8
         2978.461     2.389310E-8
         2981.121     5.405790E-8
          2983.78     5.445643E-8
         2986.441     2.831213E-8
         2989.104     3.002801E-8
         2991.772     3.566962E-8
         2994.442     3.037801E-8
         2997.113     3.406824E-8
         2999.788     4.993436E-8
         3002.464     5.373309E-8
         3005.142     5.753875E-8
         3007.826     4.614114E-8
         3010.507     2.968096E-8
         3013.194     2.304061E-8
         3015.883     2.549655E-8
         3018.573     3.077946E-8
         3021.267     3.951861E-8
          3023.96     5.813657E-8
          3026.66     5.446977E-8
          3029.36     3.830625E-8
         3032.062     7.576448E-8
          3034.77     7.714019E-8
         3037.475     4.395144E-8
         3040.186     2.613202E-8
         3042.897     2.235500E-8
         3045.612     2.430992E-8
         3048.332     1.937677E-8
         3051.051     1.407663E-8
         3053.772     3.028794E-8
         3056.497     5.094464E-8
         3059.222     2.726285E-8
         3061.954     1.217765E-8
         3064.685     2.047621E-8
         3067.418     2.844738E-8
         3070.156     1.540766E-8
         3072.896     1.615063E-8
         3075.637     3.420002E-8
          3078.38     3.294353E-8
         3081.126     2.048894E-8
         3083.877     1.921519E-8
         3086.628     2.241153E-8
         3089.381     2.679557E-8
         3092.137     2.705633E-8
         3094.895     2.794564E-8
         3097.659     3.261242E-8
         3100.422     1.516369E-8
         3103.187     1.940409E-8
         3105.955     5.298740E-8
         3108.729     5.583267E-8
         3111.501     2.748655E-8
