#  Table wf2f185wsys.tab  Mon 12:21:38 02-Jun-97

#      WAVELENGTH      THROUGHPUT
#       angstroms                

            1640.              0.
         1641.562     6.614078E-6
         1643.125     1.322515E-5
         1644.691     1.983575E-5
         1646.258     2.644222E-5
         1647.825     3.303577E-5
         1649.395     3.965810E-5
         1650.966     4.631141E-5
         1652.538     5.299780E-5
         1654.113     5.970554E-5
         1655.689     6.642788E-5
         1657.265     7.316739E-5
         1658.844     7.992519E-5
         1660.425     8.672577E-5
         1662.006     9.360463E-5
         1663.589     1.005142E-4
         1665.173     1.074540E-4
         1666.759     1.144247E-4
         1668.347     1.214296E-4
         1669.936     1.284613E-4
         1671.527     1.356273E-4
          1673.12     1.428438E-4
         1674.712     1.500943E-4
         1676.308     1.573956E-4
         1677.905     1.647401E-4
         1679.502     1.721195E-4
         1681.103     1.796352E-4
         1682.704     1.872379E-4
         1684.307     1.948949E-4
         1685.911     2.026100E-4
         1687.517     2.103754E-4
         1689.124     2.181959E-4
         1690.733     2.261323E-4
         1692.344     2.342069E-4
         1693.956     2.423425E-4
          1695.57     2.505482E-4
         1697.185     2.588144E-4
           1698.8     2.671426E-4
         1700.419     2.778395E-4
          1702.04     2.952283E-4
         1703.661     3.127654E-4
         1705.283     3.304636E-4
         1706.908     3.483334E-4
         1708.533     3.663447E-4
         1710.161     3.845581E-4
          1711.79     4.030789E-4
          1713.42     4.217825E-4
         1715.053     4.406775E-4
         1716.685     4.597351E-4
         1718.321     4.789993E-4
         1719.958     4.984500E-4
         1721.596     5.182322E-4
         1723.236     5.382405E-4
         1724.877     5.584414E-4
          1726.52     5.788449E-4
         1728.165     5.994663E-4
         1729.811     6.202825E-4
         1731.459     6.432894E-4
         1733.108     6.667955E-4
         1734.759     6.905600E-4
         1736.411     7.145585E-4
         1738.065     7.388082E-4
         1739.721     7.633223E-4
         1741.377     7.881903E-4
         1743.037     8.133775E-4
         1744.698     8.388314E-4
         1746.358     8.645232E-4
         1748.023     8.905153E-4
         1749.687     9.167643E-4
         1751.354     9.422539E-4
         1753.023     9.677314E-4
         1754.691     9.933850E-4
         1756.363     0.001019274
         1758.036     0.001045358
          1759.71     0.001071652
         1761.387     0.001094924
         1763.066     0.001117701
         1764.744     0.001140631
         1766.425     0.001163755
         1768.108     0.001187075
         1769.792     0.001210565
         1771.478     0.001234366
         1773.165     0.001258361
         1774.854     0.001282545
         1776.545     0.001306921
         1778.237     0.001331501
         1779.931      0.00135626
         1781.626     0.001381343
         1783.324     0.001406644
         1785.021     0.001432116
         1786.722     0.001457818
         1788.425     0.001483722
         1790.127     0.001508976
         1791.833     0.001524208
          1793.54     0.001539533
         1795.248      0.00155496
         1796.958     0.001570498
          1798.67      0.00158613
         1800.383     0.001601896
         1802.098     0.001617874
         1803.814     0.001633958
         1805.533     0.001650157
         1807.252     0.001666454
         1808.975     0.001682869
         1810.696     0.001699438
         1812.423     0.001716241
         1814.148     0.001733127
         1815.876     0.001750136
         1817.606     0.001767267
         1819.336      0.00178449
         1821.071     0.001798047
         1822.805     0.001809291
         1824.541      0.00182059
         1826.279     0.001831942
         1828.018      0.00184335
          1829.76     0.001854818
         1831.503     0.001866476
         1833.248      0.00187822
         1834.993     0.001890006
         1836.742     0.001901863
         1838.492     0.001913777
         1840.242     0.001925756
         1841.996     0.001937943
          1843.75     0.001950181
         1845.506      0.00196248
         1847.265     0.001974844
         1849.024      0.00198726
         1850.785     0.001996933
         1852.547     0.002003131
         1854.312     0.002009325
         1856.078     0.002015514
         1857.847     0.002021702
         1859.616     0.002027882
         1861.387      0.00203419
         1863.161     0.002040535
         1864.934     0.002046866
         1866.711       0.0020532
          1868.49     0.002059529
         1870.269      0.00206587
         1872.051     0.002072348
         1873.834     0.002078817
         1875.619     0.002085284
         1877.406     0.002091743
         1879.194     0.002098032
         1880.983     0.002103059
         1882.775     0.002108146
         1884.569     0.002113216
         1886.364     0.002118267
         1888.161     0.002123303
          1889.96     0.002128319
         1891.759     0.002133462
         1893.561     0.002138596
         1895.365     0.002143709
         1897.171     0.002148806
         1898.978     0.002153882
         1900.785     0.002159011
         1902.597     0.002164223
          1904.41     0.002169417
         1906.223     0.002174588
         1908.039      0.00217974
         1909.857     0.002184875
         1911.675      0.00218629
         1913.497     0.002187334
          1915.32     0.002188321
         1917.143     0.002189248
          1918.97     0.002190118
         1920.798     0.002190986
         1922.627     0.002191868
         1924.459     0.002192691
         1926.292     0.002193454
         1928.126     0.002194157
         1929.963     0.002194799
         1931.802     0.002195519
         1933.642     0.002196181
         1935.483      0.00219678
         1937.328     0.002197318
         1939.172     0.002197792
         1941.021     0.002197576
         1942.869     0.002196779
         1944.719     0.002195906
         1946.572     0.002194958
         1948.426     0.002193934
         1950.282     0.002192853
          1952.14     0.002191807
         1953.998     0.002190685
          1955.86     0.002189483
         1957.723     0.002188202
         1959.588     0.002186844
         1961.454     0.002185465
         1963.324     0.002184023
         1965.192     0.002182502
         1967.064       0.0021809
         1968.939     0.002179215
         1970.814     0.002176893
         1972.692     0.002173747
          1974.57     0.002170508
         1976.451     0.002167173
         1978.334     0.002163741
         1980.219     0.002160221
         1982.104     0.002156663
         1983.992     0.002153006
         1985.883      0.00214925
         1987.774     0.002145398
         1989.667     0.002141447
         1991.563     0.002137442
         1993.459     0.002133352
         1995.359     0.002129157
          1997.26     0.002124861
         1999.161      0.00212047
         2001.066     0.002114406
         2002.972     0.002106974
         2004.879     0.002099391
          2006.79      0.00209165
           2008.7     0.002083765
         2010.614      0.00207573
         2012.529     0.002067571
         2014.447     0.002059249
         2016.365     0.002050776
         2018.287      0.00204214
         2020.208     0.002033351
         2022.132      0.00202438
         2024.059     0.002015242
         2025.985     0.002005953
         2027.917     0.001996485
         2029.849     0.001986865
         2031.782     0.001973224
         2033.717     0.001959049
         2035.654     0.001944667
         2037.594     0.001930068
         2039.534     0.001915267
         2041.478     0.001900211
         2043.421     0.001884951
         2045.368     0.001869461
         2047.316     0.001853766
         2049.266     0.001837857
         2051.219      0.00182168
         2053.172     0.001805273
         2055.128     0.001788647
         2057.085     0.001771805
         2059.045     0.001754735
         2061.006     0.001736082
         2062.969     0.001715887
         2064.934     0.001695447
           2066.9     0.001674764
          2068.87     0.001653822
         2070.842     0.001632588
         2072.813     0.001611081
         2074.788     0.001589298
         2076.764     0.001567279
         2078.742     0.001545012
         2080.721     0.001522449
         2082.703     0.001499559
         2084.688     0.001476407
         2086.673     0.001453018
         2088.662     0.001429361
         2090.651     0.001406059
         2092.642      0.00138374
         2094.635     0.001361186
          2096.63     0.001338398
         2098.629     0.001315348
         2100.626     0.001292061
         2102.628     0.001268423
         2104.631     0.001244565
         2106.634     0.001220483
         2108.643     0.001196127
          2110.65     0.001171529
         2112.661     0.001146577
         2114.673     0.001121403
         2116.686     0.001096013
         2118.704     0.001070342
         2120.722     0.001046553
         2122.742     0.001026315
         2124.763     0.001005894
         2126.788     9.852807E-4
         2128.815     9.644831E-4
         2130.841     9.434644E-4
         2132.872     9.221594E-4
         2134.902     9.007007E-4
         2136.936     8.790359E-4
         2138.972     8.573251E-4
         2141.009     8.355177E-4
         2143.049     8.134217E-4
         2145.089     7.911576E-4
         2147.134     7.686686E-4
         2149.179     7.460129E-4
         2151.226     7.293427E-4
         2153.274     7.166914E-4
         2155.325     7.039342E-4
         2157.379     6.910643E-4
         2159.434     6.780938E-4
         2161.491     6.649080E-4
          2163.55     6.515891E-4
         2165.609     6.381757E-4
         2167.673     6.246432E-4
         2169.738     6.110152E-4
         2171.805     5.971497E-4
         2173.874     5.831760E-4
         2175.943     5.691128E-4
         2178.016     5.549347E-4
         2180.092     5.406520E-4
         2182.168     5.261534E-4
         2184.246     5.115645E-4
         2186.328     4.968726E-4
         2188.409     4.821051E-4
         2190.494     4.683630E-4
         2192.582     4.582094E-4
          2194.67     4.480029E-4
          2196.76     4.377374E-4
         2198.852     4.274115E-4
         2200.946     4.180976E-4
         2203.043     4.099240E-4
         2205.142     4.015650E-4
         2207.242     3.930146E-4
         2209.344     3.842720E-4
         2211.449     3.773741E-4
         2213.555     3.712564E-4
         2215.664     3.649968E-4
         2217.774     3.585945E-4
         2219.886     3.520487E-4
         2222.001     3.453049E-4
         2224.117     3.384196E-4
         2226.236     3.313911E-4
         2228.357     3.242138E-4
         2230.479     3.174290E-4
         2232.604     3.123487E-4
          2234.73     3.071611E-4
         2236.858     3.018671E-4
          2238.99     2.964619E-4
         2241.122     2.909288E-4
         2243.258     2.852642E-4
         2245.393     2.794988E-4
         2247.534     2.736158E-4
         2249.673     2.676339E-4
         2251.816     2.631135E-4
         2253.962     2.587913E-4
         2256.107     2.543932E-4
         2258.258     2.499055E-4
         2260.409     2.453526E-4
         2262.562     2.407655E-4
         2264.717     2.360988E-4
         2266.873     2.313522E-4
         2269.034     2.265216E-4
         2271.195     2.223787E-4
         2273.359     2.187872E-4
         2275.523     2.151384E-4
         2277.691     2.114234E-4
          2279.86     2.076487E-4
         2282.032     2.037930E-4
         2284.206     1.998722E-4
          2286.38     1.958940E-4
         2288.559     1.918484E-4
          2290.74     1.881434E-4
         2292.922     1.851716E-4
         2295.105     1.821522E-4
         2297.291     1.791247E-4
         2299.479     1.760746E-4
          2301.67     1.729248E-4
         2303.863     1.697109E-4
         2306.058     1.664444E-4
         2308.253     1.631301E-4
         2310.453     1.599663E-4
         2312.653     1.575548E-4
         2314.855     1.551046E-4
         2317.062     1.526136E-4
         2319.267     1.500865E-4
         2321.477     1.475096E-4
         2323.689     1.448899E-4
         2325.902     1.422321E-4
         2328.117     1.395349E-4
         2330.335     1.369072E-4
         2332.554     1.348598E-4
         2334.777     1.327799E-4
         2337.002     1.306690E-4
         2339.226     1.285294E-4
         2341.455     1.263495E-4
         2343.685     1.241367E-4
         2345.917     1.218923E-4
         2348.153     1.196151E-4
         2350.388     1.174111E-4
         2352.628     1.156627E-4
         2354.868     1.138907E-4
         2357.112     1.120927E-4
         2359.357     1.102708E-4
         2361.604     1.084171E-4
         2363.853     1.065355E-4
         2366.104     1.046291E-4
         2368.359     1.026964E-4
         2370.615     1.008748E-4
         2372.873     9.939144E-5
         2375.134     9.788763E-5
         2377.396     9.636504E-5
          2379.66     9.482262E-5
         2381.926     9.325328E-5
         2384.195     9.166297E-5
         2386.467     9.005207E-5
          2388.74     8.842221E-5
         2391.016     8.697499E-5
         2393.293     8.576417E-5
         2395.573     8.453844E-5
         2397.854     8.329757E-5
         2400.138     8.203284E-5
         2402.426     8.061563E-5
         2404.713     7.918439E-5
         2407.003     7.773616E-5
         2409.297     7.627041E-5
          2411.59     7.507457E-5
         2413.889     7.398971E-5
         2416.187     7.289427E-5
          2418.49     7.178507E-5
         2420.793     7.066199E-5
         2423.097     6.952316E-5
         2425.407     6.836987E-5
         2427.716     6.720620E-5
          2430.03     6.603233E-5
         2432.344     6.512910E-5
         2434.662     6.421547E-5
         2436.979     6.329306E-5
           2439.3     6.236017E-5
         2441.626     6.136204E-5
          2443.95     6.033183E-5
         2446.279     5.928980E-5
         2448.608     5.823798E-5
          2450.94     5.729616E-5
         2453.276     5.652378E-5
         2455.611     5.574432E-5
         2457.951     5.495604E-5
         2460.292     5.415977E-5
         2462.637     5.335307E-5
         2464.982     5.253887E-5
          2467.33     5.171652E-5
         2469.681     5.088561E-5
         2472.031     5.018246E-5
         2474.387     4.949278E-5
         2476.745     4.879630E-5
         2479.103     4.809377E-5
         2481.465     4.743278E-5
         2483.828     4.679603E-5
         2486.194     4.615306E-5
         2488.563     4.550345E-5
         2490.932     4.488046E-5
         2493.305     4.430053E-5
          2495.68     4.371531E-5
         2498.058     4.312399E-5
         2500.437     4.252739E-5
          2502.82     4.192463E-5
         2505.202     4.131682E-5
         2507.588     4.070288E-5
         2509.978     4.008284E-5
         2512.368     3.954231E-5
         2514.762     3.899712E-5
         2517.157     3.844703E-5
         2519.555     3.789174E-5
         2521.954     3.740198E-5
         2524.358     3.692345E-5
         2526.762     3.644063E-5
         2529.168     3.595315E-5
         2531.578     3.551923E-5
         2533.988     3.511251E-5
         2536.403     3.470136E-5
         2538.818     3.423659E-5
         2541.236     3.370754E-5
         2543.658     3.313202E-5
          2546.08     3.255401E-5
         2548.505     3.197324E-5
         2550.934     3.149400E-5
         2553.363     3.118056E-5
         2555.795     3.086544E-5
         2558.229     3.054860E-5
         2560.666     3.018047E-5
         2563.106     2.967793E-5
         2565.547     2.917327E-5
          2567.99     2.866615E-5
         2570.436     2.818966E-5
         2572.887     2.786339E-5
         2575.336     2.753599E-5
         2577.788     2.720670E-5
         2580.245     2.687563E-5
         2582.701     2.654456E-5
         2585.163     2.621114E-5
         2587.625     2.587639E-5
          2590.09     2.553999E-5
         2592.557     2.520312E-5
         2595.026     2.486453E-5
         2597.499     2.452398E-5
         2599.972     2.418190E-5
          2602.45     2.383925E-5
         2604.927     2.349524E-5
         2607.409     2.314906E-5
         2609.893     2.280135E-5
         2612.378     2.263724E-5
         2614.868     2.248039E-5
         2617.357     2.232274E-5
         2619.851     2.216392E-5
         2622.347     2.182251E-5
         2624.843     2.146815E-5
         2627.345     2.111156E-5
         2629.847     2.075341E-5
         2632.352     2.057884E-5
          2634.86     2.041522E-5
         2637.369     2.025067E-5
         2639.881     2.008514E-5
         2642.395     1.982493E-5
         2644.913     1.955850E-5
         2647.432     1.929080E-5
         2649.954     1.902171E-5
         2652.478     1.885047E-5
         2655.004     1.868008E-5
         2657.534     1.850858E-5
         2660.066     1.833609E-5
         2662.599     1.816347E-5
         2665.135     1.798981E-5
         2667.674     1.781514E-5
         2670.214     1.763952E-5
         2672.759     1.746327E-5
         2675.303     1.728622E-5
         2677.854     1.710786E-5
         2680.402     1.692891E-5
         2682.957     1.674935E-5
         2685.512     1.656889E-5
          2688.07     1.638742E-5
          2690.63     1.620504E-5
         2693.194     1.602185E-5
         2695.759     1.583775E-5
         2698.327     1.565255E-5
         2700.896     1.551240E-5
         2703.469     1.545700E-5
         2706.044     1.540090E-5
         2708.622     1.534406E-5
         2711.201     1.523681E-5
         2713.783     1.507122E-5
         2716.369     1.490397E-5
         2718.958     1.473520E-5
         2721.547     1.463012E-5
         2724.139     1.456803E-5
         2726.734     1.450518E-5
         2729.331     1.444157E-5
         2731.931     1.437725E-5
         2734.532     1.431227E-5
         2737.139     1.424640E-5
         2739.744     1.417988E-5
         2742.355     1.401124E-5
         2744.967     1.383015E-5
         2747.581     1.364745E-5
         2750.199     1.346917E-5
         2752.817     1.336447E-5
          2755.44     1.325938E-5
         2758.066     1.315405E-5
         2760.691     1.304854E-5
         2763.322     1.294252E-5
         2765.954     1.283631E-5
          2768.59     1.272978E-5
         2771.225     1.262308E-5
         2773.864     1.251601E-5
         2776.509     1.240857E-5
          2779.15     1.230112E-5
           2781.8     1.219299E-5
         2784.449     1.208466E-5
         2787.101     1.197607E-5
         2789.756     1.186723E-5
         2792.413     1.175788E-5
         2795.075     1.164813E-5
         2797.734     1.153838E-5
         2800.402     1.142810E-5
         2803.069     1.131752E-5
         2805.738     1.120668E-5
         2808.412     1.109554E-5
         2811.085     1.103204E-5
         2813.764     1.103843E-5
         2816.444     1.104482E-5
         2819.127     1.105122E-5
         2821.813     1.097726E-5
           2824.5     1.086441E-5
          2827.19     1.075133E-5
         2829.883     1.063800E-5
         2832.578     1.052429E-5
         2835.278     1.041021E-5
         2837.979     1.029600E-5
         2840.682     1.018148E-5
         2843.387     1.006651E-5
         2846.095     9.951294E-6
         2848.805     9.835853E-6
         2851.519     9.787668E-6
         2854.236     9.792556E-6
         2856.954     9.797447E-6
