#  Table wf2f218wsys.tab  Mon 12:21:39 02-Jun-97

#      WAVELENGTH      THROUGHPUT
#       angstroms                

            1216.    6.096060E-21
          1217.34    6.180345E-21
         1218.682    6.265318E-21
         1220.026    6.350711E-21
         1221.371    6.417588E-21
         1222.717    6.484921E-21
         1224.065    6.552793E-21
         1225.414    6.621160E-21
         1226.765    6.690034E-21
         1228.117    6.759414E-21
         1229.471    6.829301E-21
         1230.826    6.889025E-21
         1232.183    6.942328E-21
         1233.542    6.995975E-21
         1234.901    7.049896E-21
         1236.262    7.104163E-21
         1237.625    7.158733E-21
         1238.989    7.213657E-21
         1240.355    7.265299E-21
         1241.722    7.306785E-21
         1243.091    7.348496E-21
         1244.461    7.390404E-21
         1245.833    7.432494E-21
         1247.207    7.474827E-21
         1248.582    7.517348E-21
         1249.957    7.560048E-21
         1251.335    7.592920E-21
         1252.715    7.625598E-21
         1254.095    7.658386E-21
         1255.478    7.691326E-21
         1256.862    7.724381E-21
         1258.247    7.757541E-21
         1259.634    7.790844E-21
         1261.023    7.817971E-21
         1262.413    7.842920E-21
         1263.805    7.867938E-21
         1265.198    7.893026E-21
         1266.592    7.918174E-21
         1267.989    7.943407E-21
         1269.387    7.968720E-21
         1270.786    7.990033E-21
         1272.187    8.008237E-21
         1273.588    8.026462E-21
         1274.992    8.044728E-21
         1276.399    8.063033E-21
         1277.805    8.081355E-21
         1279.214    8.099712E-21
         1280.624    8.115614E-21
         1282.035    8.128378E-21
         1283.449    8.141162E-21
         1284.864    8.153945E-21
          1286.28    8.166723E-21
         1287.698    8.179517E-21
         1289.117    8.192314E-21
         1290.538    8.203579E-21
         1291.961    8.212316E-21
         1293.385    8.221042E-21
         1294.811    8.229752E-21
         1296.238    8.238454E-21
         1297.668    8.247150E-21
         1299.098    8.255826E-21
          1300.53    8.263547E-21
         1301.963    8.269640E-21
         1303.398    8.275710E-21
         1304.835    8.281761E-21
         1306.274    8.287792E-21
         1307.713    8.293796E-21
         1309.155    8.299782E-21
         1310.597    8.304915E-21
         1312.042    8.308852E-21
         1313.489    8.312758E-21
         1314.937    8.316636E-21
         1316.386    8.320484E-21
         1317.837    8.324302E-21
          1319.29    8.328091E-21
         1320.744    8.331035E-21
           1322.2    8.333171E-21
         1323.657    8.335268E-21
         1325.117    8.337331E-21
         1326.578    8.339359E-21
         1328.039    8.341347E-21
         1329.503    8.343302E-21
         1330.969    8.344272E-21
         1332.436    8.344714E-21
         1333.905    8.345116E-21
         1335.376    8.345476E-21
         1336.847    8.345792E-21
         1338.321    8.346067E-21
         1339.796    8.346301E-21
         1341.273    8.345659E-21
         1342.752    8.344837E-21
         1344.232    8.343968E-21
         1345.713    8.343055E-21
         1347.197    8.342095E-21
         1348.682    8.341089E-21
         1350.169    8.339954E-21
         1351.657    8.338147E-21
         1353.146    8.336291E-21
         1354.638    8.333383E-21
         1356.131    8.329086E-21
         1357.627    8.324745E-21
         1359.123    8.320366E-21
         1360.621    8.315777E-21
         1362.121    8.310911E-21
         1363.622    8.306005E-21
         1365.126    8.301050E-21
          1366.63    8.296055E-21
         1368.137    8.291014E-21
         1369.645    8.285929E-21
         1371.155    8.280787E-21
         1372.667    8.275594E-21
          1374.18    8.270357E-21
         1375.694    8.265080E-21
         1377.211    8.259753E-21
         1378.729    8.254384E-21
         1380.249    8.249009E-21
         1381.771    8.243792E-21
         1383.294    8.238531E-21
         1384.818    8.233230E-21
         1386.345    8.227882E-21
         1387.874    8.222486E-21
         1389.403    8.217051E-21
         1390.935    8.211949E-21
         1392.468    8.207045E-21
         1394.002    8.202101E-21
          1395.54    8.197108E-21
         1397.078    8.192077E-21
         1398.618    8.187007E-21
          1400.16    8.181975E-21
         1401.703    8.177635E-21
         1403.248    8.173256E-21
         1404.795    8.168833E-21
         1406.343    8.164374E-21
         1407.894    8.159873E-21
         1409.446    8.155331E-21
         1410.999    8.151017E-21
         1412.555    8.146808E-21
         1414.112    8.142561E-21
          1415.67    8.138278E-21
         1417.231    8.133953E-21
         1418.793    8.129590E-21
         1420.357    8.125146E-21
         1421.923    8.120524E-21
         1423.491    8.115862E-21
         1425.059    8.111163E-21
          1426.63    8.106424E-21
         1428.203    8.101644E-21
         1429.777    8.096826E-21
         1431.354    8.091448E-21
         1432.932    8.085943E-21
          1434.51    8.080401E-21
         1436.092    8.074813E-21
         1437.676    8.069184E-21
          1439.26    8.063517E-21
         1440.847    8.057171E-21
         1442.435    8.050224E-21
         1444.024    8.043236E-21
         1445.617    8.036198E-21
          1447.21    8.029124E-21
         1448.805    8.022004E-21
         1450.402    8.014387E-21
         1452.001    8.005384E-21
         1453.602    7.996325E-21
         1455.205    7.987223E-21
         1456.808    7.978080E-21
         1458.414    7.968884E-21
         1460.022    7.959613E-21
         1461.631    7.948112E-21
         1463.243    7.936560E-21
         1464.856    7.924959E-21
          1466.47    7.913313E-21
         1468.086    7.901609E-21
         1469.706    7.889849E-21
         1471.325    7.875723E-21
         1472.947    7.861019E-21
         1474.571    7.846260E-21
         1476.196    7.831451E-21
         1477.824    7.816574E-21
         1479.453    7.801652E-21
         1481.083    7.784496E-21
         1482.716    7.766169E-21
          1484.35    7.747784E-21
         1485.987    7.729340E-21
         1487.625    7.716606E-21
         1489.264    7.713103E-21
         1490.906    7.707345E-21
         1492.549    7.699717E-21
         1494.195    7.691912E-21
         1495.842    7.683932E-21
         1497.491    7.675776E-21
         1499.142    7.667444E-21
         1500.794    7.654108E-21
         1502.449    7.635318E-21
         1504.105    7.616322E-21
         1505.763    7.597097E-21
         1507.423    7.577651E-21
         1509.084    7.557994E-21
         1510.748    7.536766E-21
         1512.414    7.513692E-21
          1514.08    7.490400E-21
         1515.749    7.466869E-21
         1517.419    7.443120E-21
         1519.093    7.419116E-21
         1520.768    7.394088E-21
         1522.444    7.367871E-21
         1524.122    7.341436E-21
         1525.802    7.314757E-21
         1527.484    7.287849E-21
         1529.168    7.260708E-21
         1530.854    7.232939E-21
          1532.54    7.204565E-21
          1534.23    7.175949E-21
         1535.921    7.147102E-21
         1537.615    7.118015E-21
          1539.31    7.088729E-21
         1541.006    7.059397E-21
         1542.705    7.029974E-21
         1544.405    7.000342E-21
         1546.109    6.959122E-21
         1547.812    6.911838E-21
         1549.518    6.864549E-21
         1551.227    6.818187E-21
         1552.936    6.772225E-21
         1554.648    6.726261E-21
         1556.363    6.680292E-21
         1558.078    6.634383E-21
         1559.795    6.588477E-21
         1561.515    6.544572E-21
         1563.235    6.500975E-21
         1564.958    6.457373E-21
         1566.685    6.413766E-21
         1568.411    6.370218E-21
          1570.14    6.326907E-21
         1571.871    6.286359E-21
         1573.603    6.245845E-21
         1575.338    6.205320E-21
         1577.075    6.164785E-21
         1578.813    6.124303E-21
         1580.553    6.085051E-21
         1582.295    6.048484E-21
         1584.039    6.011902E-21
         1585.785    5.975325E-21
         1587.534    5.938752E-21
         1589.284    5.902187E-21
         1591.036    5.868303E-21
          1592.79    5.836273E-21
         1594.545    5.804256E-21
         1596.303    5.772223E-21
         1598.062    5.740187E-21
         1599.824    5.708148E-21
         1601.588    5.680736E-21
         1603.353    5.653841E-21
          1605.12    5.626925E-21
          1606.89    5.599998E-21
         1608.661    5.573062E-21
         1610.434    5.547437E-21
          1612.21    5.525863E-21
         1613.986    5.504284E-21
         1615.765    5.482682E-21
         1617.548    5.461052E-21
          1619.33    5.439429E-21
         1621.115    5.421219E-21
         1622.902    5.405055E-21
          1624.69    5.388882E-21
         1626.482    5.372676E-21
         1628.275    5.356467E-21
         1630.069    5.340450E-21
         1631.867    5.329797E-21
         1633.665    5.319134E-21
         1635.466    5.308441E-21
         1637.269    5.297736E-21
         1639.074    5.287014E-21
          1640.88    5.279103E-21
         1642.689    5.274147E-21
           1644.5    5.269179E-21
         1646.313    5.264199E-21
         1648.128    5.259513E-21
         1649.944    5.258879E-21
         1651.763    5.263984E-21
         1653.585    5.269270E-21
         1655.407    5.274549E-21
         1657.232    5.279828E-21
         1659.058    5.285102E-21
         1660.888    5.293043E-21
         1662.719    5.303825E-21
         1664.552    5.314628E-21
         1666.386    5.325447E-21
         1668.223    5.336291E-21
         1670.062    5.347320E-21
         1671.903    5.363124E-21
         1673.746    5.378971E-21
          1675.59    5.394858E-21
         1677.437    5.410801E-21
         1679.287    5.426790E-21
         1681.139    5.445506E-21
         1682.991    5.465943E-21
         1684.847    5.486464E-21
         1686.704    5.507058E-21
         1688.563    5.527716E-21
         1690.425    5.549327E-21
         1692.287    5.573907E-21
         1694.153    5.598600E-21
         1696.021    5.623392E-21
          1697.89    5.648272E-21
         1699.762    5.673276E-21
         1701.636    5.701219E-21
         1703.512    5.729705E-21
         1705.389    5.758297E-21
         1707.269    5.787031E-21
         1709.151    5.815890E-21
         1711.035    5.846441E-21
         1712.922    5.878422E-21
         1714.809    5.910539E-21
         1716.699    5.942817E-21
         1718.592    5.975249E-21
         1720.485    6.008398E-21
         1722.383    6.043447E-21
         1724.281    6.078625E-21
         1726.182    6.113994E-21
         1728.086    6.149553E-21
          1729.99    6.185251E-21
         1731.897    6.223047E-21
         1733.806    6.261044E-21
         1735.718    6.299232E-21
          1737.63    6.337589E-21
         1739.546    6.376157E-21
         1741.463    6.416044E-21
         1743.383    6.456484E-21
         1745.305    6.497130E-21
         1747.228    6.537964E-21
         1749.154    6.579027E-21
         1751.084     2.077495E-6
         1753.013     5.803705E-6
         1754.946     9.570701E-6
          1756.88     1.337705E-5
         1758.817     1.722276E-5
         1760.756     2.110932E-5
         1762.697     2.503802E-5
         1764.639     2.900594E-5
         1766.585     3.301709E-5
         1768.532     3.706995E-5
         1770.482     4.116604E-5
         1772.434     4.530853E-5
         1774.387     4.949420E-5
         1776.343     5.372170E-5
         1778.301     5.799495E-5
         1780.262     6.231546E-5
         1782.224     6.668248E-5
         1784.189     7.109728E-5
         1786.156     7.555797E-5
         1788.124     8.006255E-5
         1790.096     8.461824E-5
         1792.068     8.922631E-5
         1794.044     9.388461E-5
         1796.022     9.859117E-5
         1798.001     1.033439E-4
         1799.984     1.081502E-4
         1801.968     1.130139E-4
         1803.954     1.179280E-4
         1805.942     1.228905E-4
         1807.933     1.279059E-4
         1809.926     1.329725E-4
         1811.922     1.381053E-4
         1813.919     1.432911E-4
         1815.918     1.485273E-4
          1817.92     1.538198E-4
         1819.925     1.591682E-4
          1821.93     1.645816E-4
         1823.938     1.700533E-4
         1825.948     1.755781E-4
         1827.962     1.811643E-4
         1829.976     1.868012E-4
         1831.995     1.925197E-4
         1834.013     1.982906E-4
         1836.035     2.041227E-4
         1838.059     2.100135E-4
         1840.084     2.159611E-4
         1842.113     2.219912E-4
         1844.144     2.280819E-4
         1846.177     2.342335E-4
         1848.212     2.404468E-4
         1850.248     2.530282E-4
         1852.288     2.962592E-4
          1854.33     2.568546E-4
         1856.375     2.720842E-4
         1858.421     2.962210E-4
         1860.469     3.074049E-4
          1862.52     3.183770E-4
         1864.573     3.162489E-4
         1866.628     3.271968E-4
         1868.686     3.227079E-4
         1870.746     3.393460E-4
         1872.808     3.686038E-4
         1874.872     3.802058E-4
         1876.939     3.999743E-4
         1879.008     4.259552E-4
         1881.079     4.367860E-4
         1883.153     4.512910E-4
         1885.229     4.698904E-4
         1887.307     4.725897E-4
         1889.387     4.854341E-4
         1891.471     5.041158E-4
         1893.555     5.404848E-4
         1895.643     5.602791E-4
         1897.732     5.801687E-4
         1899.823     6.047591E-4
         1901.919     6.169757E-4
         1904.014     6.296645E-4
         1906.113     6.602189E-4
         1908.215     6.805344E-4
         1910.317     7.105332E-4
         1912.424     7.275690E-4
         1914.532     7.497977E-4
         1916.643     7.733254E-4
         1918.755     8.001891E-4
          1920.87     8.281759E-4
         1922.988     8.471166E-4
         1925.107     8.729757E-4
          1927.23     9.047223E-4
         1929.354     9.376360E-4
         1931.481     9.619910E-4
          1933.61     9.811866E-4
          1935.74     0.001024302
         1937.875     0.001050089
         1940.011     0.001088917
         1942.149     0.001117184
          1944.29     0.001139003
         1946.434     0.001163536
          1948.58     0.001193879
         1950.728     0.001234768
         1952.878      0.00126956
          1955.03     0.001295392
         1957.185     0.001316892
         1959.343     0.001354579
         1961.503     0.001390011
         1963.665     0.001418672
         1965.829     0.001457102
         1967.996     0.001499803
         1970.167     0.001529655
         1972.339     0.001549852
         1974.512     0.001590018
         1976.689     0.001628383
         1978.868     0.001651523
         1981.049     0.001687244
         1983.233     0.001709267
         1985.418     0.001745733
         1987.607     0.001777651
         1989.798     0.001805179
         1991.992     0.001843112
         1994.188     0.001878161
         1996.386     0.001893385
         1998.586     0.001932463
         2000.789     0.001951404
         2002.996      0.00198554
         2005.203     0.002020139
         2007.414     0.002042338
         2009.627      0.00207207
         2011.841     0.002110558
          2014.06     0.002136816
         2016.279     0.002149525
         2018.502     0.002177179
         2020.727     0.002202051
         2022.955     0.002227341
         2025.185     0.002259017
         2027.417     0.002290108
         2029.652     0.002307441
         2031.889     0.002336075
         2034.129     0.002348578
         2036.371     0.002378276
         2038.616     0.002398696
         2040.864     0.002415078
         2043.112     0.002443042
         2045.365     0.002457658
         2047.621     0.002479631
         2049.877     0.002510624
         2052.137     0.002519611
         2054.399     0.002543682
         2056.664     0.002569668
         2058.931     0.002588102
         2061.201     0.002598297
         2063.472     0.002610925
         2065.747     0.002635195
         2068.024     0.002649466
         2070.304     0.002658455
         2072.586     0.002671633
         2074.871     0.002693023
         2077.157     0.002703434
         2079.447     0.002715115
          2081.74     0.002734066
         2084.034     0.002750149
         2086.332     0.002759967
         2088.632     0.002772599
         2090.933     0.002789013
          2093.24     0.002792605
         2095.546     0.002805504
         2097.856      0.00282331
         2100.169     0.002829384
         2102.483      0.00284478
         2104.802     0.002857006
         2107.121     0.002866737
         2109.444     0.002871342
         2111.769     0.002889302
         2114.097     0.002886138
         2116.428     0.002906703
          2118.76     0.002910489
         2121.097      0.00291959
         2123.434     0.002928215
         2125.775     0.002935444
         2128.118     0.002943627
         2130.463     0.002951091
         2132.813     0.002953386
         2135.163     0.002961969
         2137.518     0.002960009
         2139.875     0.002970309
         2142.231     0.002971907
         2144.594     0.002980513
         2146.958     0.002976619
         2149.325       0.0029819
         2151.693     0.002992237
         2154.065     0.002999487
          2156.44     0.003002654
         2158.817     0.003001614
         2161.197     0.003001617
         2163.578     0.002997726
         2165.964     0.002998729
         2168.353     0.002997246
         2170.743     0.002991498
         2173.135     0.003002758
         2175.529     0.003004222
         2177.929     0.002997022
         2180.329     0.002993025
         2182.733      0.00299358
         2185.138     0.002985591
         2187.547      0.00298748
         2189.959     0.002978453
         2192.372     0.002973613
         2194.789     0.002969826
         2197.208      0.00296259
         2199.632      0.00295198
         2202.056     0.002962744
         2204.482     0.002976548
         2206.912     0.002985089
         2209.345     0.002998028
         2211.782      0.00300734
         2214.219     0.003014512
          2216.66     0.003026461
         2219.104     0.003037424
         2221.549     0.003045284
         2223.998     0.003049347
         2226.449     0.003057358
         2228.904     0.003067281
         2231.361      0.00307401
          2233.82     0.003072806
         2236.284     0.003075272
         2238.748     0.003075143
         2241.217     0.003077667
         2243.687     0.003082124
         2246.159     0.003077884
         2248.636     0.003078987
         2251.114     0.003077291
         2253.597     0.003073899
          2256.08     0.003070028
         2258.567     0.003066047
         2261.057     0.003059526
         2263.548     0.003052432
         2266.045     0.003037999
         2268.542     0.003030857
         2271.042     0.003030549
         2273.546     0.003020332
         2276.051     0.003014225
         2278.562     0.002993005
         2281.072     0.002987914
         2283.588     0.002969822
         2286.104     0.002963881
         2288.623      0.00294485
         2291.147     0.002924371
         2293.672     0.002915967
         2296.202     0.002893168
         2298.732     0.002874667
         2301.266     0.002858432
         2303.803     0.002832995
         2306.342     0.002815435
         2308.885     0.002799465
         2311.431     0.002786309
