#  Table wf3f702wsys.tab  Mon 12:22:23 02-Jun-97

#      WAVELENGTH      THROUGHPUT
#       angstroms                

            1850.     3.731365E-8
         1851.651     8.450415E-8
         1853.301     1.321187E-7
         1854.956     1.802980E-7
         1856.611     2.288883E-7
         1858.267     2.779597E-7
         1859.925     3.275439E-7
         1861.584     2.985220E-7
         1863.246     2.654296E-7
         1864.909     2.319927E-7
         1866.572     1.982345E-7
         1868.237     1.641283E-7
         1869.904     1.296547E-7
         1871.573     1.597272E-7
         1873.242     1.940572E-7
         1874.913     2.287261E-7
         1876.585     2.637381E-7
          1878.26     2.991211E-7
         1879.937     3.347168E-7
         1881.613     3.239013E-7
         1883.292     3.111426E-7
         1884.973     2.982562E-7
         1886.654     2.852565E-7
         1888.338     2.721273E-7
         1890.023     2.590344E-7
         1891.709     2.573352E-7
         1893.396     2.556137E-7
         1895.086     2.538691E-7
         1896.775     2.521045E-7
         1898.469     2.503139E-7
         1900.163     2.459044E-7
         1901.857     2.170383E-7
         1903.555     1.878731E-7
         1905.254     1.584429E-7
         1906.953     1.287682E-7
         1908.655     9.880966E-8
         1910.357     7.243108E-8
         1912.061     6.030455E-8
         1913.768     4.806175E-8
         1915.476     3.570830E-8
         1917.184     2.325186E-8
         1918.894     1.068409E-8
         1920.606     7.696727E-9
          1922.32     2.247156E-8
         1924.035     3.737686E-8
         1925.752     5.240559E-8
          1927.47     6.757421E-8
         1929.189     8.286705E-8
          1930.91     8.491345E-8
         1932.634     7.499578E-8
         1934.358     6.498782E-8
         1936.084     5.489574E-8
         1937.811     4.471142E-8
          1939.54     3.442943E-8
          1941.27     2.807277E-8
         1943.003     2.311556E-8
         1944.737     1.811341E-8
          1946.47     1.307257E-8
         1948.207     7.980463E-9
         1949.947     2.840030E-9
         1951.685     3.920854E-9
         1953.427     5.210088E-9
         1955.171     6.510599E-9
         1956.913     7.820856E-9
          1958.66     9.144113E-9
         1960.408     1.006568E-8
         1962.157     9.631695E-9
         1963.908     9.193292E-9
         1965.658     8.751296E-9
         1967.413     8.304601E-9
         1969.169     7.853692E-9
         1970.925     1.211898E-8
         1972.684     2.068967E-8
         1974.444     2.933046E-8
         1976.205     3.804692E-8
         1977.969     4.684972E-8
         1979.734     5.571840E-8
           1981.5     5.844605E-8
         1983.268     6.008796E-8
         1985.037     6.174175E-8
         1986.809     6.340929E-8
         1988.581     6.508865E-8
         1990.355     6.423502E-8
         1992.131     5.316044E-8
         1993.908     4.198720E-8
         1995.688     3.070100E-8
         1997.467     1.933641E-8
          1999.25     7.858079E-9
         2001.034     3.009461E-9
         2002.818     3.023290E-9
         2004.606     3.037184E-9
         2006.396     3.051111E-9
         2008.184     3.065060E-9
         2009.976     3.079066E-9
         2011.769     3.439289E-9
         2013.565     3.807883E-9
         2015.362     4.180083E-9
         2017.158     4.555419E-9
         2018.958     4.934829E-9
          2020.76     5.676093E-9
         2022.563     6.917112E-9
         2024.368     8.171103E-9
         2026.173     9.436429E-9
         2027.982     1.071487E-8
         2029.791     1.200484E-8
         2031.602     2.195062E-8
         2033.414     3.312300E-8
         2035.228     4.440420E-8
         2037.044     5.580170E-8
         2038.861     6.730227E-8
         2040.681     6.982498E-8
         2042.502     5.707898E-8
         2044.324     4.421432E-8
         2046.147     3.122445E-8
         2047.974     1.809905E-8
           2049.8     4.854164E-9
          2051.63     3.978828E-9
         2053.461     4.635492E-9
         2055.291     5.297542E-9
         2057.125     5.966512E-9
         2058.961     6.641726E-9
         2060.798     6.918444E-9
         2062.637     6.668397E-9
         2064.477     6.415971E-9
         2066.318     6.161018E-9
         2068.164     5.903185E-9
         2070.007     5.642861E-9
         2071.855     5.279806E-9
         2073.704     4.913293E-9
         2075.553     4.543500E-9
         2077.405     4.170217E-9
         2079.259     3.793080E-9
         2081.113     5.417163E-9
         2082.971     8.398973E-9
         2084.829     1.140555E-8
         2086.688     1.443858E-8
          2088.55     1.750060E-8
         2090.414     2.150302E-8
         2092.279     2.874777E-8
         2094.145     3.605370E-8
         2096.014     4.342880E-8
         2097.885     5.086672E-8
         2099.756     5.836377E-8
          2101.63     5.632987E-8
         2103.503     5.283667E-8
         2105.381     4.930872E-8
          2107.26     4.574908E-8
         2109.139     4.216034E-8
         2111.022     3.723678E-8
         2112.906     3.117020E-8
         2114.789     2.506066E-8
         2116.677     1.889212E-8
         2118.564     1.267623E-8
         2120.455     7.745141E-9
         2122.348     7.018695E-9
         2124.241     6.286898E-9
         2126.135     5.549069E-9
         2128.033     4.804888E-9
         2129.932     4.054613E-9
         2131.832     4.881120E-9
         2133.734     5.772617E-9
         2135.637     6.670700E-9
         2137.544     7.576671E-9
          2139.45     8.490087E-9
         2141.359     1.191117E-8
          2143.27     1.637730E-8
         2145.182     2.087579E-8
         2147.096     2.541141E-8
         2149.011     2.997912E-8
         2150.929     3.086469E-8
         2152.848     2.778360E-8
         2154.768     2.467919E-8
         2156.692     2.154738E-8
         2158.615     1.839799E-8
         2160.541     1.548612E-8
         2162.469     1.323594E-8
         2164.397     1.097265E-8
          2166.33     8.689026E-9
         2168.263     6.390430E-9
         2170.196     4.659506E-9
         2172.133     8.083902E-9
          2174.07     1.152801E-8
         2176.011     1.499714E-8
         2177.953     1.848878E-8
         2179.895     2.200038E-8
          2181.84     1.918128E-8
         2183.787     1.597992E-8
         2185.735     1.276060E-8
         2187.686     9.520011E-9
         2189.637     6.261728E-9
          2191.59     5.683150E-9
         2193.546     5.720102E-9
         2195.503     5.757209E-9
         2197.462     5.794460E-9
         2199.423     5.831899E-9
         2201.385     5.686952E-9
         2203.348     5.462281E-9
         2205.315     5.233108E-9
         2207.283     4.999575E-9
         2209.252     4.761807E-9
         2211.222     5.922471E-9
         2213.196     7.968882E-9
          2215.17     1.004575E-8
         2217.147     1.215633E-8
         2219.125     1.429925E-8
         2221.104     1.695036E-8
         2223.086     2.002733E-8
         2225.071     2.315180E-8
         2227.055     2.631623E-8
         2229.042     2.953054E-8
         2231.031     2.868759E-8
         2233.021     2.398782E-8
         2235.015     1.921070E-8
         2237.008     1.436756E-8
         2239.003     9.451643E-9
         2241.002     7.459639E-9
         2242.999     8.443715E-9
         2245.002     9.442956E-9
         2247.005     1.045452E-8
         2249.009     1.147967E-8
         2251.016     1.234292E-8
         2253.024     1.304399E-8
         2255.033     1.375371E-8
         2257.046     1.447264E-8
         2259.061     1.520029E-8
         2261.075     1.752387E-8
         2263.092     2.127351E-8
         2265.112     2.507382E-8
         2267.134     2.892273E-8
         2269.156     3.281769E-8
         2271.181     3.352080E-8
         2273.207     3.189801E-8
         2275.234     3.025252E-8
         2277.266     2.858224E-8
         2279.296     2.689246E-8
          2281.33     2.649916E-8
         2283.366     2.680352E-8
         2285.402     2.710975E-8
         2287.441     2.741860E-8
         2289.483     2.772966E-8
         2291.525     2.511836E-8
          2293.57     2.147393E-8
         2295.615     1.778938E-8
         2297.663     1.405904E-8
         2299.715     1.027970E-8
         2301.765     9.174125E-9
          2303.82     8.494031E-9
         2305.876     7.805126E-9
         2307.932     7.107787E-9
         2309.992     6.401058E-9
         2312.051     6.715910E-9
         2314.116     7.038736E-9
          2316.18     7.364701E-9
         2318.246     7.694124E-9
         2320.315     8.037994E-9
         2322.385     8.444993E-9
         2324.457     8.856611E-9
         2326.531     9.272329E-9
         2328.606     9.692461E-9
         2330.685     9.785079E-9
         2332.764     9.198559E-9
         2334.845     8.604808E-9
         2336.927     8.003929E-9
         2339.012     7.395822E-9
         2341.101     7.222086E-9
         2343.188     7.445365E-9
         2345.279     7.670835E-9
         2347.372     7.898607E-9
         2349.467     8.128539E-9
         2351.562     8.454163E-9
         2353.661     8.815392E-9
         2355.759     9.179666E-9
         2357.862     9.547979E-9
         2359.966     9.919834E-9
         2362.071     9.416983E-9
         2364.179     8.893539E-9
         2366.288     8.364576E-9
         2368.398     7.829700E-9
         2370.512     7.610406E-9
         2372.628     8.401077E-9
         2374.744     9.199027E-9
         2376.863     1.000529E-8
         2378.983     1.081898E-8
         2381.105     1.238911E-8
          2383.23     1.466850E-8
         2385.357     1.696992E-8
         2387.485     1.929241E-8
         2389.615     2.163709E-8
         2391.747     2.696190E-8
         2393.881     3.298916E-8
         2396.017     3.907732E-8
         2398.154     4.521895E-8
         2400.293     5.059862E-8
         2402.435     5.083540E-8
          2404.58     5.107287E-8
         2406.724     5.131081E-8
         2408.872     5.154956E-8
         2411.022     4.868994E-8
         2413.171     4.237458E-8
         2415.326     3.598845E-8
         2417.479     2.955520E-8
         2419.637     2.305349E-8
         2421.796     1.985479E-8
         2423.957     1.731109E-8
          2426.12     1.474277E-8
         2428.284     1.215291E-8
         2430.451     1.087254E-8
         2432.619     1.468256E-8
         2434.789     1.852495E-8
         2436.962     2.240291E-8
         2439.136     2.631353E-8
         2441.312     2.587000E-8
          2443.49     2.252299E-8
          2445.67     1.914497E-8
         2447.853     1.573732E-8
         2450.036     1.238576E-8
         2452.222     1.391221E-8
         2454.409     1.545109E-8
           2456.6     1.700350E-8
         2458.792     1.856828E-8
         2460.985     1.892677E-8
          2463.18     1.778742E-8
         2465.379     1.663752E-8
         2467.579     1.547793E-8
         2469.778     1.430991E-8
         2471.983     1.492100E-8
          2474.19     1.573825E-8
         2476.396     1.656032E-8
         2478.606     1.738967E-8
         2480.817     1.723730E-8
         2483.029     1.539021E-8
         2485.247     1.352553E-8
         2487.462     1.164916E-8
         2489.682     9.755272E-9
         2491.904     9.540797E-9
         2494.125     9.608487E-9
         2496.353     9.676643E-9
         2498.579     9.745045E-9
         2500.808     9.791876E-9
          2503.04     9.800178E-9
         2505.272     9.808336E-9
         2507.509     9.816356E-9
         2509.745     9.824231E-9
         2511.985     1.228610E-8
         2514.225     1.508213E-8
         2516.468     1.790017E-8
         2518.714     2.074154E-8
         2520.962     2.136192E-8
          2523.21     1.897594E-8
         2525.462     1.656928E-8
         2527.715     1.414501E-8
         2529.971     1.169989E-8
         2532.229     1.281214E-8
         2534.486     1.397869E-8
         2536.748     1.515550E-8
          2539.01     1.631365E-8
         2541.277     1.623965E-8
         2543.545     1.520592E-8
         2545.813     1.416831E-8
         2548.084     1.312629E-8
         2550.358     1.220861E-8
         2552.635     1.198031E-8
         2554.911     1.175110E-8
         2557.191     1.152063E-8
         2559.471     1.128936E-8
         2561.755     1.622814E-8
         2564.042     2.275032E-8
         2566.329     2.929532E-8
         2568.619     3.587002E-8
         2570.908     3.974133E-8
         2573.205     3.947920E-8
           2575.5     3.921587E-8
         2577.797     3.895092E-8
         2580.097     3.842139E-8
         2582.399     3.193246E-8
         2584.704     2.541151E-8
          2587.01     1.886416E-8
         2589.318     1.229259E-8
         2591.629     1.274441E-8
          2593.94     1.615827E-8
         2596.254     1.958566E-8
         2598.573     2.303161E-8
         2600.889     2.733924E-8
          2603.21     3.304655E-8
         2605.532     3.877360E-8
         2607.856     4.452448E-8
         2610.185     4.949032E-8
         2612.512     4.499931E-8
         2614.843     4.048360E-8
         2617.177     3.594793E-8
          2619.51     3.139810E-8
         2621.849     3.576884E-8
         2624.188     4.252768E-8
         2626.528     4.931445E-8
         2628.873     5.613402E-8
         2631.217     5.417915E-8
         2633.566     4.403832E-8
         2635.916     3.385378E-8
         2638.267     2.363101E-8
          2640.62     1.665415E-8
         2642.977     1.886352E-8
         2645.334     2.108085E-8
         2647.695     2.330866E-8
         2650.057     2.544739E-8
         2652.422     2.365496E-8
         2654.788     2.185566E-8
         2657.157     2.004711E-8
         2659.526     1.823269E-8
         2661.899     1.946708E-8
         2664.275     2.147220E-8
         2666.652     2.348448E-8
         2669.031     2.550619E-8
         2671.412     2.581186E-8
         2673.796     2.493302E-8
         2676.181     2.405065E-8
          2678.57     2.316361E-8
          2680.96     2.528357E-8
          2683.35     3.190181E-8
         2685.746     3.855975E-8
          2688.14     4.523358E-8
          2690.54     4.832954E-8
         2692.941     3.895047E-8
         2695.343     2.953540E-8
         2697.748     2.007490E-8
         2700.153     1.156814E-8
         2702.563     1.753405E-8
         2704.975     2.354271E-8
         2707.387     2.959115E-8
         2709.804     3.568745E-8
         2712.222     3.664951E-8
         2714.642     3.715897E-8
         2717.063     3.767138E-8
         2719.486     3.818684E-8
         2721.915     3.376281E-8
         2724.343     2.798139E-8
         2726.772     2.215738E-8
         2729.205     1.629065E-8
          2731.64     1.394670E-8
         2734.078     1.332320E-8
         2736.517     1.269531E-8
         2738.958     1.206271E-8
         2741.402     1.395901E-8
         2743.849     1.775980E-8
         2746.296     2.158500E-8
         2748.747     2.543966E-8
         2751.198     2.854362E-8
         2753.653     3.085182E-8
         2756.111     3.316577E-8
         2758.569     3.548414E-8
         2761.031     3.428466E-8
         2763.495     2.818108E-8
         2765.958     2.206957E-8
         2768.427     1.593555E-8
         2770.898     1.204187E-8
         2773.369     1.209748E-8
         2775.844     1.215325E-8
          2778.32     1.220912E-8
         2780.799     1.262058E-8
          2783.28     1.378251E-8
         2785.764     1.494738E-8
         2788.249     1.611426E-8
         2790.736     1.687946E-8
         2793.227     1.668231E-8
          2795.72     1.648467E-8
         2798.213     1.628667E-8
         2800.709     1.719225E-8
         2803.209     2.088789E-8
         2805.709     2.459004E-8
         2808.213     2.830343E-8
         2810.718     3.204792E-8
         2813.226     3.586583E-8
         2815.736     3.969028E-8
         2818.247     4.352350E-8
         2820.764     4.501717E-8
         2823.278     4.111317E-8
         2825.798     3.719538E-8
          2828.32     3.326872E-8
         2830.843     3.066191E-8
         2833.369     3.069741E-8
         2835.898     3.073298E-8
         2838.426     3.076856E-8
         2840.959     3.149799E-8
         2843.495     3.336904E-8
         2846.031     3.524305E-8
         2848.571     3.712255E-8
         2851.112     3.533027E-8
         2853.655     2.880218E-8
         2856.202     2.225628E-8
         2858.751     1.569630E-8
         2861.301     1.389956E-8
         2863.853     1.669118E-8
         2866.407     1.948895E-8
         2868.965     2.229450E-8
         2871.526     2.581171E-8
         2874.087     2.981276E-8
         2876.652     3.382511E-8
         2879.218     3.784304E-8
         2881.788     3.536678E-8
         2884.358     3.003812E-8
         2886.931     2.469801E-8
         2889.507     1.934389E-8
         2892.084     2.093755E-8
         2894.666     2.418352E-8
         2897.248     2.743445E-8
         2899.832     3.069157E-8
         2902.421     3.204859E-8
          2905.01     3.326906E-8
         2907.601     3.448743E-8
         2910.198     3.523973E-8
          2912.79     3.035869E-8
         2915.392     2.547359E-8
         2917.992     2.060287E-8
         2920.594     1.681891E-8
         2923.203     1.668199E-8
         2925.807     1.654554E-8
          2928.42     1.640892E-8
         2931.033     2.154938E-8
         2933.646     3.473233E-8
         2936.266     4.791496E-8
         2938.885     6.105652E-8
         2941.506     6.505625E-8
         2944.131     6.229826E-8
         2946.757     5.954676E-8
         2949.387     5.679843E-8
         2952.018     4.906969E-8
         2954.653     3.983756E-8
          2957.29     3.062285E-8
         2959.926     2.143671E-8
         2962.567     1.881448E-8
          2965.21     1.638800E-8
         2967.856     1.396503E-8
         2970.505     1.220268E-8
         2973.155     1.322637E-8
         2975.808     1.424859E-8
         2978.461     1.526736E-8
         2981.121     1.621978E-8
          2983.78     1.707838E-8
         2986.441     1.793510E-8
         2989.104     1.878984E-8
         2991.772     1.832340E-8
         2994.442     1.719157E-8
         2997.113     1.606266E-8
         2999.788     1.493532E-8
         3002.464     1.407742E-8
         3005.142     1.324417E-8
         3007.826     1.241158E-8
         3010.507     1.205917E-8
         3013.194     1.375383E-8
         3015.883     1.544464E-8
         3018.573     1.713052E-8
         3021.267     1.892471E-8
          3023.96     2.083740E-8
          3026.66     2.274906E-8
          3029.36     2.465394E-8
         3032.062     2.541063E-8
          3034.77     2.581130E-8
         3037.475     2.621012E-8
         3040.186     2.629812E-8
         3042.897     2.218194E-8
         3045.612     1.807503E-8
         3048.332     1.397266E-8
         3051.051     1.145551E-8
         3053.772     1.143642E-8
         3056.497     1.141727E-8
         3059.222     1.139811E-8
         3061.954     1.602019E-8
         3064.685     2.246941E-8
         3067.418     2.890295E-8
         3070.156     3.521276E-8
         3072.896     3.967417E-8
         3075.637     4.412157E-8
          3078.38     4.855696E-8
         3081.126     4.664090E-8
         3083.877     3.560342E-8
         3086.628     2.460711E-8
         3089.381     1.364032E-8
         3092.137     1.635406E-8
         3094.895     2.301151E-8
         3097.659     2.965932E-8
         3100.422     3.437326E-8
         3103.187     2.846821E-8
         3105.955     2.253995E-8
         3108.729     1.658107E-8
         3111.501     1.345298E-8
