#  Table wf3f380wsys.tab  Mon 12:22:15 02-Jun-97

#      WAVELENGTH      THROUGHPUT
#       angstroms                

            1850.     1.124375E-6
         1851.651     9.498082E-7
         1853.301     7.736327E-7
         1854.956     5.953281E-7
         1856.611     4.154622E-7
         1858.267     2.337763E-7
         1859.925     5.015159E-8
         1861.584     8.687094E-8
         1863.246     1.345150E-7
         1864.909     1.826384E-7
         1866.572     2.312080E-7
         1868.237     2.802614E-7
         1869.904     3.298270E-7
         1871.573     3.473381E-7
         1873.242     3.630140E-7
         1874.913     3.788358E-7
         1876.585     3.948051E-7
          1878.26     4.109349E-7
         1879.937     4.270446E-7
         1881.613     3.812418E-7
         1883.292     3.325809E-7
         1884.973     2.834560E-7
         1886.654     2.339230E-7
         1888.338     1.839189E-7
         1890.023     1.342741E-7
         1891.709     1.423878E-7
         1893.396     1.505696E-7
         1895.086     1.588239E-7
         1896.775     1.671359E-7
         1898.469     1.755318E-7
         1900.163     1.843109E-7
         1901.857     1.961478E-7
         1903.555     2.080994E-7
         1905.254     2.201514E-7
         1906.953     2.322957E-7
         1908.655     2.445482E-7
         1910.357     2.496542E-7
         1912.061     2.273959E-7
         1913.768     2.049209E-7
         1915.476     1.822394E-7
         1917.184     1.593656E-7
         1918.894     1.362840E-7
         1920.606     1.176530E-7
          1922.32     1.073911E-7
         1924.035     9.703521E-8
         1925.752     8.659003E-8
          1927.47     7.604412E-8
         1929.189     6.540841E-8
          1930.91     6.055255E-8
         1932.634     6.091002E-8
         1934.358     6.126890E-8
         1936.084     6.162900E-8
         1937.811     6.199057E-8
          1939.54     6.235383E-8
          1941.27     7.296686E-8
         1943.003     8.741090E-8
         1944.737     1.019815E-7
          1946.47     1.166603E-7
         1948.207     1.314841E-7
         1949.947     1.464442E-7
         1951.685     1.274876E-7
         1953.427     1.072600E-7
         1955.171     8.685008E-8
         1956.913     6.628179E-8
          1958.66     4.550408E-8
         1960.408     2.854450E-8
         1962.157     2.465348E-8
         1963.908     2.072466E-8
         1965.658     1.676533E-8
         1967.413     1.276571E-8
         1969.169     8.730075E-9
         1970.925     7.950589E-9
         1972.684     1.013568E-8
         1974.444     1.233850E-8
         1976.205     1.456047E-8
         1977.969     1.680432E-8
         1979.734     1.906482E-8
           1981.5     2.556196E-8
         1983.268     3.287276E-8
         1985.037     4.024304E-8
         1986.809     4.768114E-8
         1988.581     5.517857E-8
         1990.355     6.048693E-8
         1992.131     5.678354E-8
         1993.908     5.304607E-8
         1995.688     4.926972E-8
         1997.467     4.546607E-8
          1999.25     4.162327E-8
         2001.034     3.847802E-8
         2002.818     3.583811E-8
         2004.606     3.316540E-8
         2006.396     3.046607E-8
         2008.184     2.774209E-8
         2009.976     2.498643E-8
         2011.769     2.411504E-8
         2013.565     2.325935E-8
         2015.362     2.239424E-8
         2017.158     2.152080E-8
         2018.958     2.063683E-8
          2020.76     2.162295E-8
         2022.563     2.520444E-8
         2024.368     2.882321E-8
         2026.173     3.247451E-8
         2027.982     3.616348E-8
         2029.791     3.988557E-8
         2031.602     4.223790E-8
         2033.414     4.442600E-8
         2035.228     4.663423E-8
         2037.044     4.886405E-8
         2038.861     5.111286E-8
         2040.681     5.058973E-8
         2042.502     4.536303E-8
         2044.324     4.008700E-8
         2046.147     3.475896E-8
         2047.974     2.937467E-8
           2049.8     2.394069E-8
          2051.63     2.261459E-8
         2053.461     2.178804E-8
         2055.291     2.095389E-8
         2057.125     2.011022E-8
         2058.961     1.925786E-8
         2060.798     1.992433E-8
         2062.637     2.259626E-8
         2064.477     2.529100E-8
         2066.318     2.801008E-8
         2068.164     3.075726E-8
         2070.007     3.350572E-8
         2071.855     3.144045E-8
         2073.704     2.935545E-8
         2075.553     2.725176E-8
         2077.405     2.512819E-8
         2079.259     2.298264E-8
         2081.113     2.235839E-8
         2082.971     2.275848E-8
         2084.829     2.316135E-8
         2086.688     2.356721E-8
          2088.55     2.397640E-8
         2090.414     2.466384E-8
         2092.279     2.632339E-8
         2094.145     2.799649E-8
         2096.014     2.968495E-8
         2097.885     3.138732E-8
         2099.756     3.310275E-8
          2101.63     3.421957E-8
         2103.503     3.525160E-8
         2105.381     3.629271E-8
          2107.26     3.734207E-8
         2109.139     3.839883E-8
         2111.022     3.942224E-8
         2112.906     4.041776E-8
         2114.789     4.141937E-8
         2116.677     4.242971E-8
         2118.564     4.344685E-8
         2120.455     4.383278E-8
         2122.348     4.219633E-8
         2124.241     4.054732E-8
         2126.135     3.888422E-8
         2128.033     3.720629E-8
         2129.932     3.551412E-8
         2131.832     3.472595E-8
         2133.734     3.396502E-8
         2135.637     3.319780E-8
         2137.544     3.242316E-8
          2139.45     3.164992E-8
         2141.359     2.940425E-8
          2143.27     2.654232E-8
         2145.182     2.365900E-8
         2147.096     2.075125E-8
         2149.011     1.782227E-8
         2150.929     1.557639E-8
         2152.848     1.407093E-8
         2154.768     1.255406E-8
         2156.692     1.102380E-8
         2158.615     9.484950E-9
         2160.541     8.963197E-9
         2162.469     1.108625E-8
         2164.397     1.322134E-8
          2166.33     1.537530E-8
         2168.263     1.754307E-8
         2170.196     1.958463E-8
         2172.133     2.041294E-8
          2174.07     2.124580E-8
         2176.011     2.208450E-8
         2177.953     2.292843E-8
         2179.895     2.377698E-8
          2181.84     2.338149E-8
         2183.787     2.291173E-8
         2185.735     2.243913E-8
         2187.686     2.196321E-8
         2189.637     2.148450E-8
          2191.59     2.279108E-8
         2193.546     2.451577E-8
         2195.503     2.624961E-8
         2197.462     2.799200E-8
         2199.423     2.974513E-8
         2201.385     2.847023E-8
         2203.348     2.589243E-8
         2205.315     2.326693E-8
         2207.283     2.059537E-8
         2209.252     1.787920E-8
         2211.222     1.604956E-8
         2213.196     1.476386E-8
          2215.17     1.345707E-8
         2217.147     1.212714E-8
         2219.125     1.077491E-8
         2221.104     9.750053E-9
         2223.086     8.985427E-9
         2225.071     8.207732E-9
         2227.055     7.418838E-9
         2229.042     6.616259E-9
         2231.031     7.446919E-9
         2233.021     9.830599E-9
         2235.015     1.225167E-8
         2237.008     1.470439E-8
         2239.003     1.719215E-8
         2241.002     1.888485E-8
         2242.999     1.976580E-8
         2245.002     2.065937E-8
         2247.005     2.156304E-8
         2249.009     2.247792E-8
         2251.016     2.249899E-8
         2253.024     2.162980E-8
         2255.033     2.074722E-8
         2257.046     1.985052E-8
         2259.061     1.894029E-8
         2261.075     1.823831E-8
         2263.092     1.772046E-8
         2265.112     1.719426E-8
         2267.134     1.665997E-8
         2269.156     1.611796E-8
         2271.181     1.561165E-8
         2273.207     1.512994E-8
         2275.234     1.464116E-8
         2277.266     1.414466E-8
         2279.296     1.364203E-8
          2281.33     1.477650E-8
         2283.366     1.680016E-8
         2285.402     1.884548E-8
         2287.441     2.091747E-8
         2289.483     2.301355E-8
         2291.525     2.401903E-8
          2293.57     2.465570E-8
         2295.615     2.529786E-8
         2297.663     2.595405E-8
         2299.715     2.661904E-8
         2301.765     2.721337E-8
          2303.82     2.780198E-8
         2305.876     2.839627E-8
         2307.932     2.899591E-8
         2309.992     2.960173E-8
         2312.051     3.141884E-8
         2314.116     3.326419E-8
          2316.18     3.512784E-8
         2318.246     3.701162E-8
         2320.315     3.820041E-8
         2322.385     3.538441E-8
         2324.457     3.253180E-8
         2326.531     2.964609E-8
         2328.606     2.672513E-8
         2330.685     2.450637E-8
         2332.764     2.377904E-8
         2334.845     2.304215E-8
         2336.927     2.229583E-8
         2339.012     2.153996E-8
         2341.101     1.991955E-8
         2343.188     1.751189E-8
         2345.279     1.507624E-8
         2347.372     1.261131E-8
         2349.467     1.011869E-8
         2351.562     1.158211E-8
         2353.661     1.443016E-8
         2355.759     1.730455E-8
         2357.862     2.021311E-8
         2359.966     2.315197E-8
         2362.071     2.328768E-8
         2364.179     2.337694E-8
         2366.288     2.346614E-8
         2368.398     2.355535E-8
         2370.512     2.407480E-8
         2372.628     2.595207E-8
         2374.744     2.784640E-8
         2376.863     2.976024E-8
         2378.983     3.169147E-8
         2381.105     3.381407E-8
          2383.23     3.611842E-8
         2385.357     3.844429E-8
         2387.485     4.079070E-8
         2389.615     4.315878E-8
         2391.747     4.465340E-8
         2393.881     4.596125E-8
         2396.017     4.728103E-8
         2398.154     4.861111E-8
         2400.293     4.972605E-8
         2402.435     4.941625E-8
          2404.58     4.910195E-8
         2406.724     4.878336E-8
         2408.872     4.846011E-8
         2411.022     4.725155E-8
         2413.171     4.505666E-8
         2415.326     4.283628E-8
         2417.479     4.059863E-8
         2419.637     3.833629E-8
         2421.796     4.077934E-8
         2423.957     4.420107E-8
          2426.12     4.765408E-8
         2428.284     5.113417E-8
         2430.451     5.332466E-8
         2432.619     5.048063E-8
         2434.789     4.761080E-8
         2436.962     4.471281E-8
         2439.136     4.178881E-8
         2441.312     3.724322E-8
          2443.49     3.160290E-8
          2445.67     2.591050E-8
         2447.853     2.016832E-8
         2450.036     1.452677E-8
         2452.222     1.745811E-8
         2454.409     2.041356E-8
           2456.6     2.339521E-8
         2458.792     2.640084E-8
         2460.985     2.751899E-8
          2463.18     2.629270E-8
         2465.379     2.505489E-8
         2467.579     2.380648E-8
         2469.778     2.254885E-8
         2471.983     2.212264E-8
          2474.19     2.178708E-8
         2476.396     2.144891E-8
         2478.606     2.110711E-8
         2480.817     2.136477E-8
         2483.029     2.265697E-8
         2485.247     2.396077E-8
         2487.462     2.527200E-8
         2489.682     2.659475E-8
         2491.904     2.807656E-8
         2494.125     2.959252E-8
         2496.353     3.112277E-8
         2498.579     3.266263E-8
         2500.808     3.287266E-8
          2503.04     3.071378E-8
         2505.272     2.853863E-8
         2507.509     2.634404E-8
         2509.745     2.413332E-8
         2511.985     2.590068E-8
         2514.225     2.819605E-8
         2516.468     3.050916E-8
         2518.714     3.284108E-8
         2520.962     3.344438E-8
          2523.21     3.170749E-8
         2525.462     2.995517E-8
         2527.715     2.818967E-8
         2529.971     2.640862E-8
         2532.229     2.747166E-8
         2534.486     2.857891E-8
         2536.748     2.969559E-8
          2539.01     3.076912E-8
         2541.277     2.982542E-8
         2543.545     2.731101E-8
         2545.813     2.478730E-8
         2548.084     2.225296E-8
         2550.358     2.026413E-8
         2552.635     2.125641E-8
         2554.911     2.225173E-8
         2557.191     2.325161E-8
         2559.471     2.425408E-8
         2561.755     2.522995E-8
         2564.042     2.620006E-8
         2566.329     2.717329E-8
         2568.619     2.815065E-8
         2570.908     2.840021E-8
         2573.205     2.753571E-8
           2575.5     2.666853E-8
         2577.797     2.579729E-8
         2580.097     2.489849E-8
         2582.399     2.346941E-8
         2584.704     2.203307E-8
          2587.01     2.059072E-8
         2589.318     1.914282E-8
         2591.629     1.990456E-8
          2593.94     2.159917E-8
         2596.254     2.330033E-8
         2598.573     2.501053E-8
         2600.889     2.749942E-8
          2603.21     3.125086E-8
         2605.532     3.501514E-8
         2607.856     3.879497E-8
         2610.185     4.197168E-8
         2612.512     3.792217E-8
         2614.843     3.385041E-8
         2617.177     2.976070E-8
          2619.51     2.565826E-8
         2621.849     2.629905E-8
         2624.188     2.820689E-8
         2626.528     3.012238E-8
         2628.873     3.204691E-8
         2631.217     3.215301E-8
         2633.566     3.056345E-8
         2635.916     2.896671E-8
         2638.267     2.736365E-8
          2640.62     2.603528E-8
         2642.977     2.549030E-8
         2645.334     2.494293E-8
         2647.695     2.439256E-8
         2650.057     2.379798E-8
         2652.422     2.149906E-8
         2654.788     1.919146E-8
         2657.157     1.687211E-8
         2659.526     1.454537E-8
         2661.899     1.433557E-8
         2664.275     1.465771E-8
         2666.652     1.498084E-8
         2669.031     1.530533E-8
         2671.412     1.494945E-8
         2673.796     1.412276E-8
         2676.181     1.329289E-8
          2678.57     1.245875E-8
          2680.96     1.294779E-8
          2683.35     1.541770E-8
         2685.746     1.790238E-8
          2688.14     2.039293E-8
          2690.54     2.332155E-8
         2692.941     2.772930E-8
         2695.343     3.215333E-8
         2697.748     3.659805E-8
         2700.153     4.046439E-8
         2702.563     3.561207E-8
         2704.975     3.072401E-8
         2707.387     2.580261E-8
         2709.804     2.084130E-8
         2712.222     2.218094E-8
         2714.642     2.409007E-8
         2717.063     2.601245E-8
         2719.486     2.794850E-8
         2721.915     2.984455E-8
         2724.343     3.173657E-8
         2726.772     3.364173E-8
         2729.205     3.556008E-8
          2731.64     3.309669E-8
         2734.078     2.847447E-8
         2736.517     2.382103E-8
         2738.958     1.913400E-8
         2741.402     1.643762E-8
         2743.849     1.523491E-8
         2746.296     1.402408E-8
         2748.747     1.280354E-8
         2751.198     1.226913E-8
         2753.653     1.245890E-8
         2756.111     1.264914E-8
         2758.569     1.283972E-8
         2761.031     1.287942E-8
         2763.495     1.270859E-8
         2765.958     1.253752E-8
         2768.427     1.236581E-8
         2770.898     1.279627E-8
         2773.369     1.428419E-8
         2775.844     1.577665E-8
          2778.32     1.727191E-8
         2780.799     2.049972E-8
          2783.28     2.738091E-8
         2785.764     3.427950E-8
         2788.249     4.119009E-8
         2790.736     4.511418E-8
         2793.227     4.188835E-8
          2795.72     3.865477E-8
         2798.213     3.541534E-8
         2800.709     3.412296E-8
         2803.209     3.776199E-8
         2805.709     4.140739E-8
         2808.213     4.506386E-8
         2810.718     4.791979E-8
         2813.226     4.877177E-8
         2815.736     4.962516E-8
         2818.247     5.048048E-8
         2820.764     5.191874E-8
         2823.278     5.468798E-8
         2825.798     5.746692E-8
          2828.32     6.025209E-8
         2830.843     5.836548E-8
         2833.369     4.713200E-8
         2835.898     3.587234E-8
         2838.426     2.460171E-8
         2840.959     2.105982E-8
         2843.495     3.027871E-8
         2846.031     3.951228E-8
         2848.571     4.877301E-8
         2851.112     5.089244E-8
         2853.655     4.380426E-8
         2856.202     3.669672E-8
         2858.751     2.957389E-8
         2861.301     2.804469E-8
         2863.853     3.190411E-8
         2866.407     3.577204E-8
         2868.965     3.965071E-8
         2871.526     3.953413E-8
         2874.087     3.670058E-8
         2876.652     3.385901E-8
         2879.218     3.101344E-8
         2881.788     3.169553E-8
         2884.358     3.392694E-8
         2886.931     3.616312E-8
         2889.507     3.840514E-8
         2892.084     3.911473E-8
         2894.666     3.946223E-8
         2897.248     3.981021E-8
         2899.832     4.015885E-8
         2902.421     4.379451E-8
          2905.01     4.764738E-8
         2907.601     5.149391E-8
         2910.198     5.486004E-8
          2912.79     5.242105E-8
         2915.392     4.997984E-8
         2917.992     4.754564E-8
         2920.594     4.542008E-8
         2923.203     4.432511E-8
         2925.807     4.323443E-8
          2928.42     4.214284E-8
         2931.033     4.359752E-8
         2933.646     4.893223E-8
         2936.266     5.426663E-8
         2938.885     5.958421E-8
         2941.506     5.496266E-8
         2944.131     4.299337E-8
         2946.757     3.105342E-8
         2949.387     1.912853E-8
         2952.018     1.872103E-8
         2954.653     2.180250E-8
          2957.29     2.487797E-8
         2959.926     2.794369E-8
         2962.567     3.860834E-8
          2965.21     4.946574E-8
         2967.856     6.030672E-8
         2970.505     6.878308E-8
         2973.155     6.730048E-8
         2975.808     6.581948E-8
         2978.461     6.434298E-8
         2981.121     6.194769E-8
          2983.78     5.830041E-8
         2986.441     5.466032E-8
         2989.104     5.102778E-8
         2991.772     5.177235E-8
         2994.442     5.472228E-8
         2997.113     5.766402E-8
         2999.788     6.060102E-8
         3002.464     4.984370E-8
         3005.142     3.793440E-8
         3007.826     2.603565E-8
         3010.507     1.768772E-8
         3013.194     2.438072E-8
         3015.883     3.105875E-8
         3018.573     3.771747E-8
         3021.267     4.267357E-8
          3023.96     4.570975E-8
          3026.66     4.874420E-8
          3029.36     5.176780E-8
         3032.062     5.643986E-8
          3034.77     6.162072E-8
         3037.475     6.677969E-8
         3040.186     7.117404E-8
         3042.897     6.528055E-8
         3045.612     5.940009E-8
         3048.332     5.352591E-8
         3051.051     5.159559E-8
         3053.772     5.589451E-8
         3056.497     6.018556E-8
         3059.222     6.445990E-8
         3061.954     6.386427E-8
         3064.685     6.133567E-8
         3067.418     5.881271E-8
         3070.156     5.604133E-8
         3072.896     4.909424E-8
         3075.637     4.216806E-8
          3078.38     3.525982E-8
         3081.126     3.278237E-8
         3083.877     3.666027E-8
         3086.628     4.052333E-8
         3089.381     4.437562E-8
         3092.137     4.700866E-8
         3094.895     4.928444E-8
         3097.659     5.155660E-8
         3100.422     5.495071E-8
         3103.187     6.464825E-8
         3105.955     7.438352E-8
         3108.729     8.416866E-8
         3111.501     8.387238E-8
