#  Table wf3f675wsys.tab  Mon 12:22:23 02-Jun-97

#      WAVELENGTH      THROUGHPUT
#       angstroms                

            1850.     4.464623E-6
         1851.651     3.753645E-6
         1853.301     3.036118E-6
         1854.956     2.309923E-6
         1856.611     1.577373E-6
         1858.267     8.374146E-7
         1859.925     8.956351E-8
         1861.584     8.119142E-8
         1863.246     1.081421E-7
         1864.909     1.353629E-7
         1866.572     1.628351E-7
         1868.237     1.905799E-7
         1869.904     2.186134E-7
         1871.573     4.376965E-7
         1873.242     6.705544E-7
         1874.913     9.057316E-7
         1876.585     1.143257E-6
          1878.26     1.383321E-6
         1879.937     1.625103E-6
         1881.613     1.770210E-6
         1883.292     1.912678E-6
         1884.973     2.056426E-6
         1886.654     2.201289E-6
         1888.338     2.347452E-6
         1890.023     2.490591E-6
         1891.709     2.326956E-6
         1893.396     2.161804E-6
         1895.086     1.995046E-6
         1896.775     1.826977E-6
         1898.469     1.657068E-6
         1900.163     1.486604E-6
         1901.857     1.323161E-6
         1903.555     1.158021E-6
         1905.254     9.913781E-7
         1906.953     8.233484E-7
         1908.655     6.537090E-7
         1910.357     5.146093E-7
         1912.061     4.951742E-7
         1913.768     4.755414E-7
         1915.476     4.557199E-7
         1917.184     4.357221E-7
         1918.894     4.155342E-7
         1920.606     3.830269E-7
          1922.32     3.279313E-7
         1924.035     2.723376E-7
         1925.752     2.162719E-7
          1927.47     1.596726E-7
         1929.189     1.025981E-7
          1930.91     1.012563E-7
         1932.634     1.502625E-7
         1934.358     1.996997E-7
         1936.084     2.495377E-7
         1937.811     2.998163E-7
          1939.54     3.505626E-7
          1941.27     3.192770E-7
         1943.003     2.576629E-7
         1944.737     1.954910E-7
          1946.47     1.328391E-7
         1948.207     6.955078E-8
         1949.947     5.662721E-9
         1951.685     1.083577E-7
         1953.427     2.173704E-7
         1955.171     3.273429E-7
         1956.913     4.381461E-7
          1958.66     5.500548E-7
         1960.408     6.120010E-7
         1962.157     5.064267E-7
         1963.908     3.998312E-7
         1965.658     2.924128E-7
         1967.413     1.839059E-7
         1969.169     7.442642E-8
         1970.925     2.067427E-8
         1972.684     1.757320E-8
         1974.444     1.444606E-8
         1976.205     1.129081E-8
         1977.969     8.103610E-9
         1979.734     4.891844E-9
           1981.5     6.279110E-9
         1983.268     8.505394E-9
         1985.037     1.074983E-8
         1986.809     1.301497E-8
         1988.581     1.529821E-8
         1990.355     1.668126E-8
         1992.131     1.438149E-8
         1993.908     1.206113E-8
         1995.688     9.717224E-9
         1997.467     7.356945E-9
          1999.25     4.972948E-9
         2001.034     1.006831E-8
         2002.818     2.067259E-8
         2004.606     3.140316E-8
         2006.396     4.223514E-8
         2008.184     5.316069E-8
         2009.976     6.420793E-8
         2011.769     9.810267E-8
         2013.565     1.326602E-7
         2015.362     1.675630E-7
         2017.158     2.027674E-7
         2018.958     2.383610E-7
          2020.76     2.409106E-7
         2022.563     1.975188E-7
         2024.368     1.536595E-7
         2026.173     1.093897E-7
         2027.982     6.464725E-8
         2029.791     1.948730E-8
         2031.602     1.430728E-8
         2033.414     1.439003E-8
         2035.228     1.447314E-8
         2037.044     1.455667E-8
         2038.861     1.464052E-8
         2040.681     2.197999E-8
         2042.502     4.158844E-8
         2044.324     6.137551E-8
         2046.147     8.135126E-8
         2047.974     1.015315E-7
           2049.8     1.218915E-7
          2051.63     1.177962E-7
         2053.461     1.106200E-7
         2055.291     1.033801E-7
         2057.125     9.605994E-8
         2058.961     8.866667E-8
         2060.798     7.836720E-8
         2062.637     6.424538E-8
         2064.477     4.999789E-8
         2066.318     3.561657E-8
         2068.164     2.108149E-8
         2070.007     6.508360E-9
         2071.855     1.058699E-8
         2073.704     1.470259E-8
         2075.553     1.885314E-8
         2077.405     2.304098E-8
         2079.259     2.727018E-8
         2081.113     2.797172E-8
         2082.971     2.629420E-8
         2084.829     2.460194E-8
         2086.688     2.289401E-8
          2088.55     2.116897E-8
         2090.414     2.821057E-8
         2092.279     6.617456E-8
         2094.145     1.044612E-7
         2096.014     1.431124E-7
         2097.885     1.820948E-7
         2099.756     2.213892E-7
          2101.63     1.913190E-7
         2103.503     1.505414E-7
         2105.381     1.093688E-7
          2107.26     6.783656E-8
         2109.139     2.597561E-8
         2111.022     9.339060E-9
         2112.906     1.422701E-8
         2114.789     1.914874E-8
         2116.677     2.411720E-8
         2118.564     2.912295E-8
         2120.455     3.188940E-8
         2122.348     2.744720E-8
         2124.241     2.297258E-8
         2126.135     1.846136E-8
         2128.033     1.391162E-8
         2129.932     9.324903E-9
         2131.832     1.001255E-8
         2133.734     1.090211E-8
         2135.637     1.179815E-8
         2137.544     1.270197E-8
          2139.45     1.361425E-8
         2141.359     1.662561E-8
          2143.27     2.051226E-8
         2145.182     2.442696E-8
         2147.096     2.837388E-8
         2149.011     3.234859E-8
         2150.929     3.629131E-8
         2152.848     4.019117E-8
         2154.768     4.411937E-8
         2156.692     4.808110E-8
         2158.615     5.206389E-8
         2160.541     5.255783E-8
         2162.469     4.400209E-8
         2164.397     3.539663E-8
          2166.33     2.671390E-8
         2168.263     1.797433E-8
         2170.196     9.995355E-9
         2172.133     9.161012E-9
          2174.07     8.321736E-9
         2176.011     7.476237E-9
         2177.953     6.625121E-9
         2179.895     5.769014E-9
          2181.84     6.829798E-9
         2183.787     8.007528E-9
         2185.735     9.191730E-9
         2187.686     1.038362E-8
         2189.637     1.158190E-8
          2191.59     1.815093E-8
         2193.546     2.599071E-8
         2195.503     3.387279E-8
         2197.462     4.179436E-8
         2199.423     4.976547E-8
         2201.385     4.590524E-8
         2203.348     3.697482E-8
         2205.315     2.788477E-8
         2207.283     1.864086E-8
         2209.252     9.248105E-9
         2211.222     7.480055E-9
         2213.196     1.048819E-8
          2215.17     1.354121E-8
         2217.147     1.664390E-8
         2219.125     1.979427E-8
         2221.104     2.691995E-8
         2223.086     3.730834E-8
         2225.071     4.785982E-8
         2227.055     5.854897E-8
         2229.042     6.940932E-8
         2231.031     6.777030E-8
         2233.021     5.425049E-8
         2235.015     4.050939E-8
         2237.008     2.657963E-8
         2239.003     1.244173E-8
         2241.002     6.800783E-9
         2242.999     9.808003E-9
         2245.002     1.286279E-8
         2247.005     1.595647E-8
         2249.009     1.909294E-8
         2251.016     2.143184E-8
         2253.024     2.297384E-8
         2255.033     2.453526E-8
         2257.046     2.611734E-8
         2259.061     2.771905E-8
         2261.075     2.609618E-8
         2263.092     2.159726E-8
         2265.112     1.703449E-8
         2267.134     1.241024E-8
         2269.156     7.727649E-9
         2271.181     6.427473E-9
         2273.207     7.590105E-9
         2275.234     8.767137E-9
         2277.266     9.960083E-9
         2279.296     1.116512E-8
          2281.33     1.366504E-8
         2283.366     1.687582E-8
         2285.402     2.012152E-8
         2287.441     2.341010E-8
         2289.483     2.673748E-8
         2291.525     3.369081E-8
          2293.57     4.195609E-8
         2295.615     5.030747E-8
         2297.663     5.878200E-8
         2299.715     6.736839E-8
         2301.765     7.555631E-8
          2303.82     8.377376E-8
         2305.876     9.208739E-8
         2307.932     1.004926E-7
         2309.992     1.090009E-7
         2312.051     1.241622E-7
         2314.116     1.395528E-7
          2316.18     1.551033E-7
         2318.246     1.708289E-7
         2320.315     1.810335E-7
         2322.385     1.593491E-7
         2324.457     1.373883E-7
         2326.531     1.151784E-7
         2328.606     9.270266E-8
         2330.685     7.291473E-8
         2332.764     5.901832E-8
         2334.845     4.495808E-8
         2336.927     3.073653E-8
         2339.012     1.635128E-8
         2341.101     9.225484E-9
         2343.188     8.741735E-9
         2345.279     8.252131E-9
         2347.372     7.756408E-9
         2349.467     7.254884E-9
         2351.562     9.144530E-9
         2353.661     1.187913E-8
         2355.759     1.463910E-8
         2357.862     1.743197E-8
         2359.966     2.025401E-8
         2362.071     1.769074E-8
         2364.179     1.500816E-8
         2366.288     1.229851E-8
         2368.398     9.559782E-9
         2370.512     8.018665E-9
         2372.628     1.032606E-8
         2374.744     1.265523E-8
         2376.863     1.500920E-8
         2378.983     1.738537E-8
         2381.105     2.056990E-8
          2383.23     2.451444E-8
         2385.357     2.849715E-8
         2387.485     3.251633E-8
         2389.615     3.657395E-8
         2391.747     4.202345E-8
         2393.881     4.782009E-8
         2396.017     5.367479E-8
         2398.154     5.958037E-8
         2400.293     6.336489E-8
         2402.435     5.340356E-8
          2404.58     4.334539E-8
         2406.724     3.319812E-8
         2408.872     2.294865E-8
         2411.022     1.668179E-8
         2413.171     1.488166E-8
         2415.326     1.306128E-8
         2417.479     1.122738E-8
         2419.637     9.373894E-9
         2421.796     9.332048E-9
         2423.957     9.660719E-9
          2426.12     9.992248E-9
         2428.284     1.032622E-8
         2430.451     1.422229E-8
         2432.619     3.175406E-8
         2434.789     4.943577E-8
         2436.962     6.728204E-8
         2439.136     8.527957E-8
         2441.312     8.203799E-8
          2443.49     6.463060E-8
          2445.67     4.706325E-8
         2447.853     2.934310E-8
         2450.036     1.177388E-8
         2452.222     1.114659E-8
         2454.409     1.051377E-8
           2456.6     9.874995E-9
         2458.792     9.230721E-9
         2460.985     8.888165E-9
          2463.18     8.920670E-9
         2465.379     8.953259E-9
         2467.579     8.985904E-9
         2469.778     9.018573E-9
         2471.983     9.051116E-9
          2474.19     9.083714E-9
         2476.396     9.116317E-9
         2478.606     9.149018E-9
         2480.817     9.543098E-9
         2483.029     1.055968E-8
         2485.247     1.158553E-8
         2487.462     1.261739E-8
         2489.682     1.365848E-8
         2491.904     1.393832E-8
         2494.125     1.409088E-8
         2496.353     1.424466E-8
         2498.579     1.439915E-8
         2500.808     1.747096E-8
          2503.04     2.572070E-8
         2505.272     3.402961E-8
         2507.509     4.240973E-8
         2509.745     5.084851E-8
         2511.985     4.865186E-8
         2514.225     4.505692E-8
         2516.468     4.143235E-8
         2518.714     3.777643E-8
         2520.962     3.322852E-8
          2523.21     2.749029E-8
         2525.462     2.170268E-8
         2527.715     1.587310E-8
         2529.971     9.993756E-9
         2532.229     1.750425E-8
         2534.486     2.524158E-8
         2536.748     3.304836E-8
          2539.01     4.084341E-8
         2541.277     4.055019E-8
         2543.545     3.394660E-8
         2545.813     2.731904E-8
         2548.084     2.066406E-8
         2550.358     1.491761E-8
         2552.635     1.418508E-8
         2554.911     1.344991E-8
         2557.191     1.271103E-8
         2559.471     1.196985E-8
         2561.755     1.152959E-8
         2564.042     1.117948E-8
         2566.329     1.082799E-8
         2568.619     1.047476E-8
         2570.908     1.026776E-8
         2573.205     1.028445E-8
           2575.5     1.030104E-8
         2577.797     1.031758E-8
         2580.097     1.056548E-8
         2582.399     1.605804E-8
         2584.704     2.157715E-8
          2587.01     2.711805E-8
         2589.318     3.267892E-8
         2591.629     3.891128E-8
          2593.94     4.543756E-8
         2596.254     5.198952E-8
         2598.573     5.857677E-8
         2600.889     6.746455E-8
          2603.21     8.008480E-8
         2605.532     9.274858E-8
         2607.856     1.054650E-7
         2610.185     1.160748E-7
         2612.512     1.014702E-7
         2614.843     8.678575E-8
         2617.177     7.203707E-8
          2619.51     5.724293E-8
         2621.849     4.698410E-8
         2624.188     3.791916E-8
         2626.528     2.881551E-8
         2628.873     1.966657E-8
         2631.217     1.471497E-8
         2633.566     1.366935E-8
         2635.916     1.261911E-8
         2638.267     1.156479E-8
          2640.62     1.378313E-8
         2642.977     2.519609E-8
         2645.334     3.665124E-8
         2647.695     4.816144E-8
         2650.057     5.927375E-8
         2652.422     5.256825E-8
         2654.788     4.583755E-8
         2657.157     3.907276E-8
         2659.526     3.228652E-8
         2661.899     2.850772E-8
         2664.275     2.547411E-8
         2666.652     2.242882E-8
         2669.031     1.936846E-8
         2671.412     2.354826E-8
         2673.796     3.273831E-8
         2676.181     4.196106E-8
          2678.57     5.122861E-8
          2680.96     6.902835E-8
          2683.35     9.955242E-8
         2685.746     1.302603E-7
          2688.14     1.610421E-7
          2690.54     1.767081E-7
         2692.941     1.396299E-7
         2695.343     1.024095E-7
         2697.748     6.500973E-8
         2700.153     2.965704E-8
         2702.563     2.601618E-8
         2704.975     2.234852E-8
         2707.387     1.865586E-8
         2709.804     1.493326E-8
         2712.222     1.912720E-8
         2714.642     2.405199E-8
         2717.063     2.901169E-8
         2719.486     3.400741E-8
         2721.915     4.065432E-8
         2724.343     4.777399E-8
         2726.772     5.494450E-8
         2729.205     6.216602E-8
          2731.64     6.515601E-8
         2734.078     6.607916E-8
         2736.517     6.700718E-8
         2738.958     6.794055E-8
         2741.402     6.897541E-8
         2743.849     7.008764E-8
         2746.296     7.120577E-8
         2748.747     7.233130E-8
         2751.198     6.564087E-8
         2753.653     5.072413E-8
         2756.111     3.576985E-8
         2758.569     2.078692E-8
         2761.031     1.346006E-8
         2763.495     1.682683E-8
         2765.958     2.019795E-8
         2768.427     2.358145E-8
         2770.898     2.561545E-8
         2773.369     2.527145E-8
         2775.844     2.492636E-8
          2778.32     2.458061E-8
         2780.799     2.483503E-8
          2783.28     2.635719E-8
         2785.764     2.788318E-8
         2788.249     2.941182E-8
         2790.736     3.133792E-8
         2793.227     3.420819E-8
          2795.72     3.708530E-8
         2798.213     3.996756E-8
         2800.709     3.992795E-8
         2803.209     3.249428E-8
         2805.709     2.504744E-8
         2808.213     1.757795E-8
         2810.718     1.937775E-8
         2813.226     4.434196E-8
         2815.736     6.934907E-8
         2818.247     9.441376E-8
         2820.764     1.115968E-7
         2823.278     1.105014E-7
         2825.798     1.094021E-7
          2828.32     1.083002E-7
         2830.843     1.144453E-7
         2833.369     1.350876E-7
         2835.898     1.557779E-7
         2838.426     1.764881E-7
         2840.959     1.739214E-7
         2843.495     1.329727E-7
         2846.031     9.195873E-8
         2848.571     5.082391E-8
         2851.112     2.723035E-8
         2853.655     2.624364E-8
         2856.202     2.525421E-8
         2858.751     2.426265E-8
         2861.301     2.230459E-8
         2863.853     1.941412E-8
         2866.407     1.651725E-8
         2868.965     1.361230E-8
         2871.526     1.828117E-8
         2874.087     2.810041E-8
         2876.652     3.794740E-8
         2879.218     4.780815E-8
         2881.788     5.981997E-8
         2884.358     7.277826E-8
         2886.931     8.576430E-8
         2889.507     9.878430E-8
         2892.084     8.280913E-8
         2894.666     5.991776E-8
         2897.248     3.699128E-8
         2899.832     1.402099E-8
         2902.421     2.628905E-8
          2905.01     4.097047E-8
         2907.601     5.562852E-8
         2910.198     6.835385E-8
          2912.79     5.771661E-8
         2915.392     4.707060E-8
         2917.992     3.645596E-8
         2920.594     2.846225E-8
         2923.203     2.927016E-8
         2925.807     3.007458E-8
          2928.42     3.087933E-8
         2931.033     2.938326E-8
         2933.646     2.438121E-8
         2936.266     1.937909E-8
         2938.885     1.439234E-8
         2941.506     1.226323E-8
         2944.131     1.224639E-8
         2946.757     1.222952E-8
         2949.387     1.221261E-8
         2952.018     1.308899E-8
         2954.653     1.423530E-8
          2957.29     1.537933E-8
         2959.926     1.651970E-8
         2962.567     1.917536E-8
          2965.21     2.186809E-8
         2967.856     2.455669E-8
         2970.505     3.637567E-8
         2973.155     8.688485E-8
         2975.808     1.373248E-7
         2978.461     1.875977E-7
         2981.121     2.034098E-7
          2983.78     1.719338E-7
         2986.441     1.405219E-7
         2989.104     1.091773E-7
         2991.772     8.886326E-8
         2994.442     7.414264E-8
         2997.113     5.946079E-8
         2999.788     4.480041E-8
         3002.464     3.596711E-8
         3005.142     2.764943E-8
         3007.826     1.933910E-8
         3010.507     1.316724E-8
         3013.194     1.603485E-8
         3015.883     1.889600E-8
         3018.573     2.174884E-8
         3021.267     2.293319E-8
          3023.96     2.224245E-8
          3026.66     2.155187E-8
          3029.36     2.086354E-8
         3032.062     2.522880E-8
          3034.77     3.115785E-8
         3037.475     3.706214E-8
         3040.186     4.197455E-8
         3042.897     3.352728E-8
         3045.612     2.509910E-8
         3048.332     1.668033E-8
         3051.051     1.234131E-8
         3053.772     1.443827E-8
         3056.497     1.653149E-8
         3059.222     1.861664E-8
         3061.954     3.768124E-8
         3064.685     6.342250E-8
         3067.418     8.910138E-8
         3070.156     1.117045E-7
         3072.896     8.424324E-8
         3075.637     5.686553E-8
          3078.38     2.955951E-8
         3081.126     1.624568E-8
         3083.877     2.298978E-8
         3086.628     2.970839E-8
         3089.381     3.640860E-8
         3092.137     5.188384E-8
         3094.895     6.986224E-8
         3097.659     8.781451E-8
         3100.422     1.009386E-7
         3103.187     8.758245E-8
         3105.955     7.417372E-8
         3108.729     6.069563E-8
         3111.501     8.324640E-8
