#  Table wf3f622wsys.tab  Mon 12:22:20 02-Jun-97

#      WAVELENGTH      THROUGHPUT
#       angstroms                

            1850.     1.063490E-6
         1851.651     4.117104E-7
         1853.301     1.290196E-7
         1854.956     1.277298E-7
         1856.611     3.851721E-7
         1858.267     7.115052E-7
         1859.925     2.703366E-7
         1861.584     1.834007E-7
         1863.246     2.460284E-7
         1864.909     2.984069E-7
         1866.572     3.635425E-7
         1868.237     5.158197E-7
         1869.904     5.106995E-7
         1871.573     1.930725E-7
         1873.242     1.007527E-7
         1874.913     2.565149E-7
         1876.585     4.014230E-7
          1878.26     2.722784E-7
         1879.937     1.543988E-7
         1881.613     2.168444E-7
         1883.292     1.668136E-7
         1884.973     9.659769E-8
         1886.654     5.720079E-8
         1888.338     5.954410E-8
         1890.023     1.102291E-7
         1891.709     3.213883E-7
         1893.396     3.402569E-7
         1895.086     2.622893E-7
         1896.775     1.631896E-7
         1898.469     8.150410E-8
         1900.163     1.891165E-8
         1901.857     4.366385E-9
         1903.555     5.160334E-9
         1905.254     4.164532E-8
         1906.953     5.986300E-8
         1908.655     3.959768E-8
         1910.357     4.841003E-9
         1912.061     3.191502E-9
         1913.768     3.667085E-9
         1915.476     2.834126E-9
         1917.184     3.016357E-9
         1918.894     1.318053E-8
         1920.606     3.479474E-8
          1922.32     5.437866E-8
         1924.035     4.280454E-8
         1925.752     4.393087E-8
          1927.47     4.494053E-8
         1929.189     8.628382E-8
          1930.91     1.034607E-7
         1932.634     6.800461E-8
         1934.358     1.795921E-8
         1936.084     1.038084E-8
         1937.811     1.294160E-8
          1939.54     3.050831E-8
          1941.27     3.835715E-8
         1943.003     2.490453E-8
         1944.737     9.211416E-9
          1946.47     1.661864E-8
         1948.207     5.889899E-8
         1949.947     1.774469E-7
         1951.685     1.595119E-7
         1953.427     1.175764E-7
         1955.171     5.841264E-8
         1956.913     2.074409E-8
          1958.66     1.421238E-8
         1960.408     1.423270E-8
         1962.157     5.479972E-9
         1963.908     1.013079E-8
         1965.658     6.157903E-8
         1967.413     1.118670E-7
         1969.169     1.192294E-7
         1970.925     7.834443E-8
         1972.684     2.874267E-8
         1974.444     9.805579E-9
         1976.205     9.195332E-9
         1977.969     1.803051E-8
         1979.734     1.398137E-8
           1981.5     1.572456E-8
         1983.268     7.799233E-8
         1985.037     1.935595E-7
         1986.809     2.665873E-7
         1988.581     2.443037E-7
         1990.355     1.834166E-7
         1992.131     1.255269E-7
         1993.908     7.822391E-8
         1995.688     4.915101E-8
         1997.467     4.573394E-8
          1999.25     6.535674E-8
         2001.034     8.732261E-8
         2002.818     1.014362E-7
         2004.606     1.004203E-7
         2006.396     6.970412E-8
         2008.184     1.217554E-8
         2009.976     7.403995E-9
         2011.769     3.053655E-8
         2013.565     4.706205E-8
         2015.362     4.616062E-8
         2017.158     3.812953E-8
         2018.958     2.784370E-8
          2020.76     2.127081E-8
         2022.563     1.931623E-8
         2024.368     1.525229E-8
         2026.173     2.289987E-8
         2027.982     5.661400E-8
         2029.791     7.310199E-8
         2031.602     5.030577E-8
         2033.414     4.035423E-8
         2035.228     4.455938E-8
         2037.044     4.912909E-8
         2038.861     5.017748E-8
         2040.681     4.945284E-8
         2042.502     4.673332E-8
         2044.324     4.832970E-8
         2046.147     7.080185E-8
         2047.974     9.649729E-8
           2049.8     8.255055E-8
          2051.63     7.058588E-8
         2053.461     7.116456E-8
         2055.291     5.778147E-8
         2057.125     3.841797E-8
         2058.961     2.658428E-8
         2060.798     2.771349E-8
         2062.637     3.307801E-8
         2064.477     2.869746E-8
         2066.318     2.231822E-8
         2068.164     1.850847E-8
         2070.007     7.300093E-9
         2071.855     4.058773E-9
         2073.704     1.025884E-8
         2075.553     3.500761E-8
         2077.405     3.438270E-8
         2079.259     2.188596E-8
         2081.113     1.463230E-8
         2082.971     1.085407E-8
         2084.829     7.410181E-9
         2086.688     8.112985E-9
          2088.55     1.356716E-8
         2090.414     1.960936E-8
         2092.279     2.704988E-8
         2094.145     3.292420E-8
         2096.014     2.156619E-8
         2097.885     8.772550E-9
         2099.756     7.007169E-9
          2101.63     1.099585E-8
         2103.503     7.555244E-9
         2105.381     6.053064E-9
          2107.26     8.357917E-9
         2109.139     6.999329E-9
         2111.022     5.643732E-9
         2112.906     1.593754E-8
         2114.789     3.360701E-8
         2116.677     3.901567E-8
         2118.564     3.299901E-8
         2120.455     4.056076E-8
         2122.348     5.245481E-8
         2124.241     4.895417E-8
         2126.135     2.785565E-8
         2128.033     1.128998E-8
         2129.932     1.131242E-8
         2131.832     2.296577E-8
         2133.734     1.833458E-8
         2135.637     8.879112E-9
         2137.544     8.007493E-9
          2139.45     2.012891E-8
         2141.359     3.875681E-8
          2143.27     4.665692E-8
         2145.182     4.159920E-8
         2147.096     2.924319E-8
         2149.011     1.574018E-8
         2150.929     9.326865E-9
         2152.848     1.106720E-8
         2154.768     1.170921E-8
         2156.692     8.277944E-9
         2158.615     8.198393E-9
         2160.541     1.283861E-8
         2162.469     1.785476E-8
         2164.397     1.909462E-8
          2166.33     1.079629E-8
         2168.263     5.647070E-9
         2170.196     5.605464E-9
         2172.133     7.824195E-9
          2174.07     9.059899E-9
         2176.011     5.024697E-9
         2177.953     7.168075E-9
         2179.895     1.479736E-8
          2181.84     1.590116E-8
         2183.787     2.633833E-8
         2185.735     3.265683E-8
         2187.686     2.179526E-8
         2189.637     1.670774E-8
          2191.59     1.835436E-8
         2193.546     2.407935E-8
         2195.503     2.059258E-8
         2197.462     1.581642E-8
         2199.423     1.424500E-8
         2201.385     1.255003E-8
         2203.348     8.283707E-9
         2205.315     8.001549E-9
         2207.283     1.426322E-8
         2209.252     2.243840E-8
         2211.222     3.290518E-8
         2213.196     3.772638E-8
          2215.17     3.751419E-8
         2217.147     2.854005E-8
         2219.125     1.579647E-8
         2221.104     1.100819E-8
         2223.086     1.255407E-8
         2225.071     1.624797E-8
         2227.055     1.453055E-8
         2229.042     9.412143E-9
         2231.031     1.060809E-8
         2233.021     1.162909E-8
         2235.015     7.744572E-9
         2237.008     5.392730E-9
         2239.003     6.086841E-9
         2241.002     1.159642E-8
         2242.999     1.908335E-8
         2245.002     1.689292E-8
         2247.005     9.636385E-9
         2249.009     8.465666E-9
         2251.016     1.204399E-8
         2253.024     1.616659E-8
         2255.033     1.834575E-8
         2257.046     1.577028E-8
         2259.061     1.264736E-8
         2261.075     1.290615E-8
         2263.092     1.468330E-8
         2265.112     1.385798E-8
         2267.134     1.186097E-8
         2269.156     9.424548E-9
         2271.181     6.678895E-9
         2273.207     7.794625E-9
         2275.234     1.308629E-8
         2277.266     1.963021E-8
         2279.296     2.379443E-8
          2281.33     2.516158E-8
         2283.366     1.854162E-8
         2285.402     1.049273E-8
         2287.441     1.079466E-8
         2289.483     2.386190E-8
         2291.525     4.234571E-8
          2293.57     4.713936E-8
         2295.615     3.600275E-8
         2297.663     2.669178E-8
         2299.715     2.007899E-8
         2301.765     1.141425E-8
          2303.82     7.520121E-9
         2305.876     9.910119E-9
         2307.932     1.302552E-8
         2309.992     1.276770E-8
         2312.051     1.808474E-8
         2314.116     2.400959E-8
          2316.18     1.654564E-8
         2318.246     1.578362E-8
         2320.315     2.820727E-8
         2322.385     3.695196E-8
         2324.457     2.984743E-8
         2326.531     1.435893E-8
         2328.606     8.990628E-9
         2330.685     7.581402E-9
         2332.764     6.880315E-9
         2334.845     6.916368E-9
         2336.927     7.795547E-9
         2339.012     8.898201E-9
         2341.101     7.924005E-9
         2343.188     7.060728E-9
         2345.279     7.096721E-9
         2347.372     7.132818E-9
         2349.467     7.168997E-9
         2351.562     7.204807E-9
         2353.661     7.240581E-9
         2355.759     7.276384E-9
         2357.862     7.312319E-9
         2359.966     7.348331E-9
         2362.071     7.383802E-9
         2364.179     7.568428E-9
         2366.288     1.056744E-8
         2368.398     2.202342E-8
         2370.512     3.168757E-8
         2372.628     2.158565E-8
         2374.744     1.067453E-8
         2376.863     2.159713E-8
         2378.983     4.622039E-8
         2381.105     5.293547E-8
          2383.23     4.580314E-8
         2385.357     4.336401E-8
         2387.485     4.516379E-8
         2389.615     4.884986E-8
         2391.747     4.931705E-8
         2393.881     4.994080E-8
         2396.017     6.421539E-8
         2398.154     8.141086E-8
         2400.293     6.847865E-8
         2402.435     5.356811E-8
          2404.58     5.755552E-8
         2406.724     6.009891E-8
         2408.872     6.043989E-8
         2411.022     6.987363E-8
         2413.171     7.758969E-8
         2415.326     7.102443E-8
         2417.479     5.907480E-8
         2419.637     4.731908E-8
         2421.796     4.934948E-8
         2423.957     4.733973E-8
          2426.12     3.565479E-8
         2428.284     3.395551E-8
         2430.451     4.105247E-8
         2432.619     4.811694E-8
         2434.789     5.660015E-8
         2436.962     6.251233E-8
         2439.136     5.503008E-8
         2441.312     4.897757E-8
          2443.49     4.945680E-8
          2445.67     4.228784E-8
         2447.853     2.953236E-8
         2450.036     2.201336E-8
         2452.222     2.906151E-8
         2454.409     3.163641E-8
           2456.6     2.041287E-8
         2458.792     1.612902E-8
         2460.985     1.441474E-8
          2463.18     1.186450E-8
         2465.379     1.078046E-8
         2467.579     1.229771E-8
         2469.778     2.110413E-8
         2471.983     1.991195E-8
          2474.19     1.291974E-8
         2476.396     9.243197E-9
         2478.606     1.052863E-8
         2480.817     2.119477E-8
         2483.029     4.009729E-8
         2485.247     4.143250E-8
         2487.462     2.931718E-8
         2489.682     1.971814E-8
         2491.904     2.177586E-8
         2494.125     1.909958E-8
         2496.353     1.611453E-8
         2498.579     2.513905E-8
         2500.808     2.584905E-8
          2503.04     3.298635E-8
         2505.272     4.918133E-8
         2507.509     5.035348E-8
         2509.745     5.011010E-8
         2511.985     5.657717E-8
         2514.225     5.569284E-8
         2516.468     3.944207E-8
         2518.714     3.025296E-8
         2520.962     3.607125E-8
          2523.21     3.504409E-8
         2525.462     2.300170E-8
         2527.715     1.784111E-8
         2529.971     1.571602E-8
         2532.229     1.659632E-8
         2534.486     3.241105E-8
         2536.748     3.437826E-8
          2539.01     3.124416E-8
         2541.277     3.024481E-8
         2543.545     1.528360E-8
         2545.813     1.028897E-8
         2548.084     1.023578E-8
         2550.358     1.432335E-8
         2552.635     3.228612E-8
         2554.911     4.221931E-8
         2557.191     3.481267E-8
         2559.471     3.161437E-8
         2561.755     2.794552E-8
         2564.042     2.004115E-8
         2566.329     2.552694E-8
         2568.619     2.139855E-8
         2570.908     1.707584E-8
         2573.205     2.204695E-8
           2575.5     3.378662E-8
         2577.797     3.509482E-8
         2580.097     3.855629E-8
         2582.399     4.989749E-8
         2584.704     4.455227E-8
          2587.01     3.804405E-8
         2589.318     4.703542E-8
         2591.629     5.660013E-8
          2593.94     4.632821E-8
         2596.254     4.711729E-8
         2598.573     5.368830E-8
         2600.889     5.621608E-8
          2603.21     5.286288E-8
         2605.532     3.960669E-8
         2607.856     3.565725E-8
         2610.185     4.701250E-8
         2612.512     5.307915E-8
         2614.843     4.679907E-8
         2617.177     3.365242E-8
          2619.51     3.079847E-8
         2621.849     3.550219E-8
         2624.188     4.830929E-8
         2626.528     4.646586E-8
         2628.873     3.828007E-8
         2631.217     3.338920E-8
         2633.566     3.656540E-8
         2635.916     3.249020E-8
         2638.267     1.982302E-8
          2640.62     1.531341E-8
         2642.977     2.080320E-8
         2645.334     2.930197E-8
         2647.695     3.593455E-8
         2650.057     4.175006E-8
         2652.422     3.489380E-8
         2654.788     2.638596E-8
         2657.157     2.831178E-8
         2659.526     2.423240E-8
         2661.899     2.426837E-8
         2664.275     3.446334E-8
         2666.652     4.327034E-8
         2669.031     4.880346E-8
         2671.412     4.746596E-8
         2673.796     5.053510E-8
         2676.181     4.883560E-8
          2678.57     2.664768E-8
          2680.96     2.660084E-8
          2683.35     3.895308E-8
         2685.746     4.851709E-8
          2688.14     4.701100E-8
          2690.54     5.265647E-8
         2692.941     6.045530E-8
         2695.343     3.544619E-8
         2697.748     2.195971E-8
         2700.153     2.373203E-8
         2702.563     1.880010E-8
         2704.975     1.999319E-8
         2707.387     3.130298E-8
         2709.804     4.623118E-8
         2712.222     6.353493E-8
         2714.642     6.537220E-8
         2717.063     5.332930E-8
         2719.486     4.011052E-8
         2721.915     2.525784E-8
         2724.343     5.181382E-8
         2726.772     7.201756E-8
         2729.205     5.078826E-8
          2731.64     3.897612E-8
         2734.078     5.072780E-8
         2736.517     4.467554E-8
         2738.958     3.039171E-8
         2741.402     3.094502E-8
         2743.849     3.068492E-8
         2746.296     3.505102E-8
         2748.747     2.884444E-8
         2751.198     2.645346E-8
         2753.653     4.266824E-8
         2756.111     3.076578E-8
         2758.569     3.200860E-8
         2761.031     4.719015E-8
         2763.495     5.290482E-8
         2765.958     6.364606E-8
         2768.427     5.598937E-8
         2770.898     3.159520E-8
         2773.369     3.611835E-8
         2775.844     7.083904E-8
          2778.32     6.541198E-8
         2780.799     4.566082E-8
          2783.28     4.856800E-8
         2785.764     6.364350E-8
         2788.249     6.782093E-8
         2790.736     7.439920E-8
         2793.227     7.259492E-8
          2795.72     6.436067E-8
         2798.213     6.521066E-8
         2800.709     5.791717E-8
         2803.209     5.061012E-8
         2805.709     5.235764E-8
         2808.213     4.555651E-8
         2810.718     5.119780E-8
         2813.226     3.884803E-8
         2815.736     3.238697E-8
         2818.247     3.116116E-8
         2820.764     5.544556E-8
         2823.278     8.432967E-8
         2825.798     8.456600E-8
          2828.32     7.480102E-8
         2830.843     7.637139E-8
         2833.369     9.367649E-8
         2835.898     8.323004E-8
         2838.426     6.029775E-8
         2840.959     3.818806E-8
         2843.495     3.297145E-8
         2846.031     4.114212E-8
         2848.571     5.772285E-8
         2851.112     5.709891E-8
         2853.655     4.959800E-8
         2856.202     6.861009E-8
         2858.751     7.440310E-8
         2861.301     5.701008E-8
         2863.853     3.450592E-8
         2866.407     3.625820E-8
         2868.965     6.228812E-8
         2871.526     6.750204E-8
         2874.087     5.888101E-8
         2876.652     5.242666E-8
         2879.218     4.802205E-8
         2881.788     6.524559E-8
         2884.358     6.758487E-8
         2886.931     5.878390E-8
         2889.507     5.942678E-8
         2892.084     6.116444E-8
         2894.666     6.511932E-8
         2897.248     6.978070E-8
         2899.832     8.537258E-8
         2902.421     6.459897E-8
          2905.01     4.249447E-8
         2907.601     4.748216E-8
         2910.198     6.423075E-8
          2912.79     6.601604E-8
         2915.392     8.463000E-8
         2917.992     8.798534E-8
         2920.594     5.959090E-8
         2923.203     4.579348E-8
         2925.807     5.121561E-8
          2928.42     4.771519E-8
         2931.033     4.140466E-8
         2933.646     3.656912E-8
         2936.266     4.932597E-8
         2938.885     6.600474E-8
         2941.506     7.128473E-8
         2944.131     7.338048E-8
         2946.757     6.009026E-8
         2949.387     5.076698E-8
         2952.018     4.235350E-8
         2954.653     3.640246E-8
          2957.29     3.436508E-8
         2959.926     2.428939E-8
         2962.567     4.062042E-8
          2965.21     4.093545E-8
         2967.856     3.321796E-8
         2970.505     1.698288E-8
         2973.155     1.214407E-8
         2975.808     1.487219E-8
         2978.461     2.349510E-8
         2981.121     5.316496E-8
          2983.78     5.356452E-8
         2986.441     2.785239E-8
         2989.104     2.954465E-8
         2991.772     3.510051E-8
         2994.442     2.989766E-8
         2997.113     3.353442E-8
         2999.788     4.915914E-8
         3002.464     5.290667E-8
         3005.142     5.666218E-8
         3007.826     4.544496E-8
         3010.507     2.923749E-8
         3013.194     2.269977E-8
         3015.883     2.512317E-8
         3018.573     3.033331E-8
         3021.267     3.895173E-8
          3023.96     5.731138E-8
          3026.66     5.370489E-8
          3029.36     3.777420E-8
         3032.062     7.472376E-8
          3034.77     7.609248E-8
         3037.475     4.336130E-8
         3040.186     2.578522E-8
         3042.897     2.206182E-8
         3045.612     2.399493E-8
         3048.332     1.912878E-8
         3051.051     1.389871E-8
         3053.772     2.990997E-8
         3056.497     5.031709E-8
         3059.222     2.693143E-8
         3061.954     1.203159E-8
         3064.685     2.023397E-8
         3067.418     2.811552E-8
         3070.156     1.523047E-8
         3072.896     1.596758E-8
         3075.637     3.381810E-8
          3078.38     3.258118E-8
         3081.126     2.026705E-8
         3083.877     1.901036E-8
         3086.628     2.217645E-8
         3089.381     2.651912E-8
         3092.137     2.678187E-8
         3094.895     2.766700E-8
         3097.659     3.229296E-8
         3100.422     1.501762E-8
         3103.187     1.921892E-8
         3105.955     5.248648E-8
         3108.729     5.530985E-8
         3111.501     2.723163E-8
