#  Table wf3f218wsys.tab  Mon 12:22:12 02-Jun-97

#      WAVELENGTH      THROUGHPUT
#       angstroms                

            1216.    4.819230E-21
          1217.34    4.887412E-21
         1218.682    4.956178E-21
         1220.026    5.025316E-21
         1221.371    5.079833E-21
         1222.717    5.134741E-21
         1224.065    5.190106E-21
         1225.414    5.245891E-21
         1226.765    5.302109E-21
         1228.117    5.358756E-21
         1229.471    5.415834E-21
         1230.826    5.464881E-21
         1232.183    5.508857E-21
         1233.542    5.553129E-21
         1234.901    5.597637E-21
         1236.262    5.642443E-21
         1237.625    5.687511E-21
         1238.989    5.732882E-21
         1240.355    5.775667E-21
         1241.722    5.810395E-21
         1243.091    5.845315E-21
         1244.461    5.880409E-21
         1245.833    5.915663E-21
         1247.207    5.951126E-21
         1248.582    5.986754E-21
         1249.957    6.022539E-21
         1251.335    6.050509E-21
         1252.715    6.078334E-21
         1254.095    6.106257E-21
         1255.478    6.134314E-21
         1256.862    6.162472E-21
         1258.247    6.190723E-21
         1259.634    6.219100E-21
         1261.023    6.242557E-21
         1262.413    6.264281E-21
         1263.805    6.286068E-21
         1265.198    6.307916E-21
         1266.592    6.329819E-21
         1267.989    6.351797E-21
         1269.387    6.373846E-21
         1270.786    6.392702E-21
         1272.187    6.409073E-21
         1273.588    6.425464E-21
         1274.992    6.441893E-21
         1276.399    6.458357E-21
         1277.805    6.474837E-21
         1279.214    6.491350E-21
         1280.624    6.505897E-21
         1282.035    6.517930E-21
         1283.449    6.529981E-21
         1284.864    6.542031E-21
          1286.28    6.554079E-21
         1287.698    6.566141E-21
         1289.117    6.578205E-21
         1290.538    6.589040E-21
         1291.961    6.597846E-21
         1293.385    6.606640E-21
         1294.811    6.615421E-21
         1296.238    6.624196E-21
         1297.668    6.632964E-21
         1299.098    6.641715E-21
          1300.53    6.649699E-21
         1301.963    6.656369E-21
         1303.398    6.663019E-21
         1304.835    6.669651E-21
         1306.274    6.676267E-21
         1307.713    6.682857E-21
         1309.155    6.689433E-21
         1310.597    6.695317E-21
         1312.042    6.700235E-21
         1313.489    6.705127E-21
         1314.937    6.709993E-21
         1316.386    6.714831E-21
         1317.837    6.719642E-21
          1319.29    6.724427E-21
         1320.744    6.728527E-21
           1322.2    6.731970E-21
         1323.657    6.735380E-21
         1325.117    6.738759E-21
         1326.578    6.742104E-21
         1328.039    6.745415E-21
         1329.503    6.748696E-21
         1330.969    6.751176E-21
         1332.436    6.753224E-21
         1333.905    6.755238E-21
         1335.376    6.757212E-21
         1336.847    6.759146E-21
         1338.321    6.761044E-21
         1339.796    6.762904E-21
         1341.273    6.764049E-21
         1342.752    6.765046E-21
         1344.232    6.765999E-21
         1345.713    6.766912E-21
         1347.197    6.767782E-21
         1348.682    6.768611E-21
         1350.169    6.769331E-21
         1351.657    6.769501E-21
         1353.146    6.769626E-21
         1354.638    6.769098E-21
         1356.131    6.767716E-21
         1357.627    6.766293E-21
         1359.123    6.764831E-21
         1360.621    6.763193E-21
         1362.121    6.761324E-21
         1363.622    6.759414E-21
         1365.126    6.757460E-21
          1366.63    6.755465E-21
         1368.137    6.753427E-21
         1369.645    6.751347E-21
         1371.155    6.749213E-21
         1372.667    6.747032E-21
          1374.18    6.744809E-21
         1375.694    6.742546E-21
         1377.211    6.740236E-21
         1378.729    6.737886E-21
         1380.249    6.735524E-21
         1381.771    6.733286E-21
         1383.294    6.731005E-21
         1384.818    6.728683E-21
         1386.345    6.726316E-21
         1387.874    6.723908E-21
         1389.403    6.721458E-21
         1390.935    6.719274E-21
         1392.468    6.717246E-21
         1394.002    6.715179E-21
          1395.54    6.713068E-21
         1397.078    6.710920E-21
         1398.618    6.708730E-21
          1400.16    6.706568E-21
         1401.703    6.704967E-21
         1403.248    6.703327E-21
         1404.795    6.701648E-21
         1406.343    6.699930E-21
         1407.894    6.698174E-21
         1409.446    6.696379E-21
         1410.999    6.694764E-21
         1412.555    6.693232E-21
         1414.112    6.691661E-21
          1415.67    6.690055E-21
         1417.231    6.688410E-21
         1418.793    6.686727E-21
         1420.357    6.684972E-21
         1421.923    6.683066E-21
         1423.491    6.681121E-21
         1425.059    6.679139E-21
          1426.63    6.677118E-21
         1428.203    6.675059E-21
         1429.777    6.672963E-21
         1431.354    6.670399E-21
         1432.932    6.667724E-21
          1434.51    6.665013E-21
         1436.092    6.662258E-21
         1437.676    6.659464E-21
          1439.26    6.656633E-21
         1440.847    6.653233E-21
         1442.435    6.649331E-21
         1444.024    6.645388E-21
         1445.617    6.641401E-21
          1447.21    6.637374E-21
         1448.805    6.633303E-21
         1450.402    6.628816E-21
         1452.001    6.623173E-21
         1453.602    6.617478E-21
         1455.205    6.611740E-21
         1456.808    6.605960E-21
         1458.414    6.600129E-21
         1460.022    6.594229E-21
         1461.631    6.586473E-21
         1463.243    6.578668E-21
         1464.856    6.570812E-21
          1466.47    6.562910E-21
         1468.086    6.554953E-21
         1469.706    6.546942E-21
         1471.325    6.536957E-21
         1472.947    6.526483E-21
         1474.571    6.515954E-21
         1476.196    6.505373E-21
         1477.824    6.494728E-21
         1479.453    6.484035E-21
         1481.083    6.471473E-21
         1482.716    6.457929E-21
          1484.35    6.444325E-21
         1485.987    6.430662E-21
         1487.625    6.421885E-21
         1489.264    6.421009E-21
         1490.906    6.418245E-21
         1492.549    6.413907E-21
         1494.195    6.409407E-21
         1495.842    6.404745E-21
         1497.491    6.399921E-21
         1499.142    6.394936E-21
         1500.794    6.385759E-21
         1502.449    6.372015E-21
         1504.105    6.358078E-21
         1505.763    6.343929E-21
         1507.423    6.329576E-21
         1509.084    6.315025E-21
         1510.748    6.299143E-21
         1512.414    6.281697E-21
          1514.08    6.264045E-21
         1515.749    6.246174E-21
         1517.419    6.228097E-21
         1519.093    6.209789E-21
         1520.768    6.190601E-21
         1522.444    6.170397E-21
         1524.122    6.149985E-21
         1525.802    6.129349E-21
         1527.484    6.108500E-21
         1529.168    6.087434E-21
         1530.854    6.065819E-21
          1532.54    6.043674E-21
          1534.23    6.021305E-21
         1535.921    5.998722E-21
         1537.615    5.975915E-21
          1539.31    5.952918E-21
         1541.006    5.929862E-21
         1542.705    5.906708E-21
         1544.405    5.883358E-21
         1546.109    5.850377E-21
         1547.812    5.812342E-21
         1549.518    5.774282E-21
         1551.227    5.736977E-21
         1552.936    5.699986E-21
         1554.648    5.662970E-21
         1556.363    5.625927E-21
         1558.078    5.588911E-21
         1559.795    5.551874E-21
         1561.515    5.516500E-21
         1563.235    5.481364E-21
         1564.958    5.446202E-21
         1566.685    5.411015E-21
         1568.411    5.375854E-21
          1570.14    5.340871E-21
         1571.871    5.308200E-21
         1573.603    5.275536E-21
         1575.338    5.242843E-21
         1577.075    5.210124E-21
         1578.813    5.177426E-21
         1580.553    5.145749E-21
         1582.295    5.116322E-21
         1584.039    5.086864E-21
         1585.785    5.057393E-21
         1587.534    5.027908E-21
         1589.284    4.998409E-21
         1591.036    4.971165E-21
          1592.79    4.945473E-21
         1594.545    4.919777E-21
         1596.303    4.894049E-21
         1598.062    4.868305E-21
         1599.824    4.842541E-21
         1601.588    4.820688E-21
         1603.353    4.799259E-21
          1605.12    4.777800E-21
          1606.89    4.756317E-21
         1608.661    4.734813E-21
         1610.434    4.714409E-21
          1612.21    4.697436E-21
         1613.986    4.680448E-21
         1615.765    4.663429E-21
         1617.548    4.646377E-21
          1619.33    4.629319E-21
         1621.115    4.615154E-21
         1622.902    4.602723E-21
          1624.69    4.590276E-21
         1626.482    4.577794E-21
         1628.275    4.565299E-21
         1630.069    4.552960E-21
         1631.867    4.545188E-21
         1633.665    4.537400E-21
         1635.466    4.529584E-21
         1637.269    4.521750E-21
         1639.074    4.513896E-21
          1640.88    4.508437E-21
         1642.689    4.505499E-21
           1644.5    4.502547E-21
         1646.313    4.499583E-21
         1648.128    4.496875E-21
         1649.944    4.497725E-21
         1651.763    4.503483E-21
         1653.585    4.509397E-21
         1655.407    4.515303E-21
         1657.232    4.521211E-21
         1659.058    4.527113E-21
         1660.888    4.535302E-21
         1662.719    4.545928E-21
         1664.552    4.556574E-21
         1666.386    4.567235E-21
         1668.223    4.577922E-21
         1670.062    4.588772E-21
         1671.903    4.603722E-21
         1673.746    4.618717E-21
          1675.59    4.633749E-21
         1677.437    4.648835E-21
         1679.287    4.663967E-21
         1681.139    4.681449E-21
         1682.991    4.700417E-21
         1684.847    4.719467E-21
         1686.704    4.738587E-21
         1688.563    4.757767E-21
         1690.425    4.777779E-21
         1692.287    4.800354E-21
         1694.153    4.823038E-21
         1696.021    4.845816E-21
          1697.89    4.868678E-21
         1699.762    4.891660E-21
         1701.636    4.917186E-21
         1703.512    4.943190E-21
         1705.389    4.969298E-21
         1707.269    4.995540E-21
         1709.151    5.021902E-21
         1711.035    5.049737E-21
         1712.922    5.078820E-21
         1714.809    5.108033E-21
         1716.699    5.137399E-21
         1718.592    5.166910E-21
         1720.485    5.197055E-21
         1722.383    5.228859E-21
         1724.281    5.260788E-21
         1726.182    5.292897E-21
         1728.086    5.325186E-21
          1729.99    5.357608E-21
         1731.897    5.391864E-21
         1733.806    5.426309E-21
         1735.718    5.460935E-21
          1737.63    5.495723E-21
         1739.546    5.530710E-21
         1741.463    5.566857E-21
         1743.383    5.603501E-21
         1745.305    5.640340E-21
         1747.228    5.677357E-21
         1749.154    5.714593E-21
         1751.084     1.805030E-6
         1753.013     5.043955E-6
         1754.946     8.320154E-6
          1756.88     1.163242E-5
         1758.817     1.498077E-5
         1760.756     1.836657E-5
         1762.697     2.179094E-5
         1764.639     2.525140E-5
         1766.585     2.875146E-5
         1768.532     3.228984E-5
         1770.482     3.586791E-5
         1772.434     3.948845E-5
         1774.387     4.314871E-5
         1776.343     4.684752E-5
         1778.301     5.058837E-5
         1780.262     5.437260E-5
         1782.224     5.819958E-5
         1784.189     6.207050E-5
         1786.156     6.598372E-5
         1788.124     6.993754E-5
         1790.096     7.393831E-5
         1792.068     7.798716E-5
         1794.044     8.208229E-5
         1796.022     8.622201E-5
         1798.001     9.040455E-5
         1799.984     9.463635E-5
         1801.968     9.892093E-5
         1803.954     1.032521E-4
         1805.942     1.076282E-4
         1807.933     1.120533E-4
         1809.926     1.165257E-4
         1811.922     1.210589E-4
         1813.919     1.256412E-4
         1815.918     1.302704E-4
          1817.92     1.349518E-4
         1819.925     1.396850E-4
          1821.93     1.444781E-4
         1823.938     1.493251E-4
         1825.948     1.542218E-4
         1827.962     1.591753E-4
         1829.976     1.641763E-4
         1831.995     1.692521E-4
         1834.013     1.743769E-4
         1836.035     1.795588E-4
         1838.059     1.847953E-4
         1840.084     1.900850E-4
         1842.113     1.954506E-4
         1844.144     2.008727E-4
         1846.177     2.063519E-4
         1848.212     2.118887E-4
         1850.248     2.230422E-4
         1852.288     2.612279E-4
          1854.33     2.265505E-4
         1856.375     2.400552E-4
         1858.421     2.614289E-4
         1860.469     2.713807E-4
          1862.52     2.811515E-4
         1864.573     2.793561E-4
         1866.628     2.891140E-4
         1868.686     2.852336E-4
         1870.746     3.000303E-4
         1872.808     3.259969E-4
         1874.872     3.363596E-4
         1876.939     3.539557E-4
         1879.008     3.770619E-4
         1881.079     3.867516E-4
         1883.153     3.997010E-4
         1885.229     4.162848E-4
         1887.307     4.187878E-4
         1889.387     4.302850E-4
         1891.471     4.469642E-4
         1893.555     4.793391E-4
         1895.643     4.970281E-4
         1897.732     5.148117E-4
         1899.823     5.367776E-4
         1901.919     5.477702E-4
         1904.014     5.591884E-4
         1906.113     5.864837E-4
         1908.215     6.046965E-4
         1910.317     6.315263E-4
         1912.424     6.468468E-4
         1914.532     6.667941E-4
         1916.643     6.879087E-4
         1918.755     7.120039E-4
          1920.87     7.371128E-4
         1922.988     7.541826E-4
         1925.107     7.774237E-4
          1927.23     8.059232E-4
         1929.354     8.354792E-4
         1931.481     8.574246E-4
          1933.61     8.747831E-4
          1935.74     9.134839E-4
         1937.875     9.367506E-4
         1940.011     9.716668E-4
         1942.149     9.971784E-4
          1944.29     0.001016948
         1946.434     0.001039154
          1948.58     0.001066564
         1950.728     0.001103416
         1952.878      0.00113484
          1955.03     0.001158271
         1957.185     0.001177843
         1959.343     0.001211909
         1961.503     0.001243979
         1963.665     0.001270007
         1965.829       0.0013048
         1967.996     0.001343441
         1970.167     0.001370593
         1972.339     0.001389109
         1974.512     0.001425541
         1976.689     0.001460381
         1978.868     0.001481584
         1981.049     0.001514093
         1983.233     0.001534327
         1985.418     0.001567542
         1987.607     0.001596695
         1989.798     0.001621923
         1991.992      0.00165652
         1994.188     0.001688547
         1996.386     0.001702766
         1998.586     0.001738455
         2000.789     0.001756019
         2002.996      0.00178722
         2005.203     0.001818856
         2007.414      0.00183934
         2009.627     0.001866624
         2011.841     0.001901813
          2014.06     0.001925998
         2016.279     0.001937981
         2018.502      0.00196345
         2020.727     0.001986423
         2022.955     0.002009787
         2025.185     0.002038928
         2027.417     0.002067558
         2029.652      0.00208378
         2031.889     0.002110219
         2034.129     0.002122099
         2036.371     0.002149526
         2038.616     0.002168583
         2040.864     0.002183998
         2043.112       0.0022099
         2045.365     0.002223739
         2047.621     0.002244245
         2049.877      0.00227293
         2052.137     0.002281703
         2054.399     0.002304146
         2056.664     0.002328336
         2058.931     0.002345697
         2061.201     0.002355598
         2063.472     0.002367713
         2065.747     0.002390396
         2068.024     0.002404019
         2070.304     0.002412857
         2072.586     0.002425504
         2074.871     0.002445616
         2077.157     0.002455768
         2079.447      0.00246708
          2081.74     0.002485008
         2084.034     0.002500338
         2086.332     0.002509981
         2088.632      0.00252219
         2090.933     0.002537849
          2093.24     0.002541847
         2095.546     0.002554321
         2097.856     0.002571273
         2100.169     0.002577547
         2102.483      0.00259232
         2104.802     0.002604214
         2107.121     0.002613841
         2109.444     0.002618799
         2111.769     0.002635945
         2114.097     0.002633824
         2116.428     0.002653364
          2118.76     0.002657595
         2121.097     0.002666684
         2123.434     0.002675345
         2125.775     0.002682736
         2128.118     0.002691004
         2130.463      0.00269862
         2132.813     0.002701515
         2135.163     0.002710165
         2137.518     0.002709171
         2139.875     0.002719338
         2142.231     0.002721526
         2144.594     0.002730135
         2146.958     0.002727296
         2149.325     0.002732864
         2151.693      0.00274307
         2154.065     0.002750452
          2156.44     0.002754094
         2158.817     0.002753878
         2161.197     0.002754619
         2163.578     0.002751785
         2165.964     0.002753446
         2168.353     0.002752824
         2170.743     0.002748285
         2173.135     0.002759371
         2175.529      0.00276146
         2177.929     0.002755585
         2180.329     0.002752652
         2182.733     0.002753906
         2185.138     0.002747299
         2187.547     0.002749782
         2189.959     0.002742214
         2192.372       0.0027385
         2194.789     0.002735754
         2197.208     0.002729828
         2199.632      0.00272079
         2202.056     0.002731453
         2204.482     0.002744926
         2206.912     0.002753552
         2209.345     0.002766241
         2211.782     0.002775589
         2214.219     0.002782967
          2216.66     0.002794761
         2219.104     0.002805651
         2221.549     0.002813681
         2223.998     0.002818206
         2226.449     0.002826384
         2228.904     0.002836334
         2231.361     0.002843336
          2233.82     0.002843002
         2236.284     0.002846066
         2238.748     0.002846729
         2241.217     0.002849849
         2243.687     0.002854763
         2246.159     0.002851621
         2248.636      0.00285343
         2251.114     0.002852644
         2253.597     0.002850288
          2256.08     0.002847485
         2258.567     0.002844579
         2261.057     0.002839316
         2263.548     0.002833516
         2266.045     0.002820901
         2268.542      0.00281505
         2271.042     0.002815546
         2273.546     0.002806834
         2276.051     0.002801937
         2278.562     0.002782986
         2281.072     0.002779027
         2283.588     0.002762969
         2286.104     0.002758212
         2288.623     0.002741266
         2291.147     0.002722964
         2293.672     0.002715897
         2296.202     0.002695413
         2298.732     0.002678864
         2301.266     0.002664419
         2303.803     0.002641387
         2306.342     0.002625689
         2308.885     0.002611465
         2311.431      0.00259986
