#  Table wf3f255wsys.tab  Mon 12:22:12 02-Jun-97

#      WAVELENGTH      THROUGHPUT
#       angstroms                

            1216.    2.089621E-22
          1217.34    2.119185E-22
         1218.682    2.149002E-22
         1220.026    2.178980E-22
         1221.371    2.202619E-22
         1222.717    2.226427E-22
         1224.065    2.250433E-22
         1225.414    2.274621E-22
         1226.765    2.298997E-22
         1228.117    2.323560E-22
         1229.471    2.348309E-22
         1230.826    2.369576E-22
         1232.183    2.388644E-22
         1233.542    2.407840E-22
         1234.901    2.427139E-22
         1236.262    2.446567E-22
         1237.625    2.466108E-22
         1238.989    2.485781E-22
         1240.355    2.504332E-22
         1241.722    2.519391E-22
         1243.091    2.534532E-22
         1244.461    2.549749E-22
         1245.833    2.565035E-22
         1247.207    2.580412E-22
         1248.582    2.595860E-22
         1249.957    2.611377E-22
         1251.335    2.623504E-22
         1252.715    2.635570E-22
         1254.095    2.647677E-22
         1255.478    2.659842E-22
         1256.862    2.672051E-22
         1258.247    2.684302E-22
         1259.634    2.696606E-22
         1261.023    2.706776E-22
         1262.413    2.716196E-22
         1263.805    2.725643E-22
         1265.198    2.735116E-22
         1266.592    2.744613E-22
         1267.989    2.754143E-22
         1269.387    2.763704E-22
         1270.786    2.771879E-22
         1272.187    2.778978E-22
         1273.588    2.786085E-22
         1274.992    2.793209E-22
         1276.399    2.800348E-22
         1277.805    2.807493E-22
         1279.214    2.814653E-22
         1280.624    2.820961E-22
         1282.035    2.826178E-22
         1283.449    2.831404E-22
         1284.864    2.836629E-22
          1286.28    2.841853E-22
         1287.698    2.847083E-22
         1289.117    2.852314E-22
         1290.538    2.857012E-22
         1291.961    2.860830E-22
         1293.385    2.864643E-22
         1294.811    2.868451E-22
         1296.238    2.872255E-22
         1297.668    2.876057E-22
         1299.098    2.879852E-22
          1300.53    2.883313E-22
         1301.963    2.886206E-22
         1303.398    2.889089E-22
         1304.835    2.891965E-22
         1306.274    2.894834E-22
         1307.713    2.897691E-22
         1309.155    2.900542E-22
         1310.597    2.903093E-22
         1312.042    2.905226E-22
         1313.489    2.907347E-22
         1314.937    2.909458E-22
         1316.386    2.911555E-22
         1317.837    2.913641E-22
          1319.29    2.915715E-22
         1320.744    2.917494E-22
           1322.2    2.918987E-22
         1323.657    2.920465E-22
         1325.117    2.921930E-22
         1326.578    2.923380E-22
         1328.039    2.924816E-22
         1329.503    2.926239E-22
         1330.969    2.927314E-22
         1332.436    2.928202E-22
         1333.905    2.929075E-22
         1335.376    2.929931E-22
         1336.847    2.930770E-22
         1338.321    2.931593E-22
         1339.796    2.932399E-22
         1341.273    2.932896E-22
         1342.752    2.933328E-22
         1344.232    2.933741E-22
         1345.713    2.934137E-22
         1347.197    2.934514E-22
         1348.682    2.934874E-22
         1350.169    2.935186E-22
         1351.657    2.935260E-22
         1353.146    2.935314E-22
         1354.638    2.935085E-22
         1356.131    2.934486E-22
         1357.627    2.933869E-22
         1359.123    2.933235E-22
         1360.621    2.932524E-22
         1362.121    2.931714E-22
         1363.622    2.930886E-22
         1365.126    2.930039E-22
          1366.63    2.929174E-22
         1368.137    2.928290E-22
         1369.645    2.927388E-22
         1371.155    2.926463E-22
         1372.667    2.925517E-22
          1374.18    2.924554E-22
         1375.694    2.923572E-22
         1377.211    2.922571E-22
         1378.729    2.921551E-22
         1380.249    2.920527E-22
         1381.771    2.919557E-22
         1383.294    2.918568E-22
         1384.818    2.917561E-22
         1386.345    2.916535E-22
         1387.874    2.915491E-22
         1389.403    2.914428E-22
         1390.935    2.913481E-22
         1392.468    2.912602E-22
         1394.002    2.911706E-22
          1395.54    2.910791E-22
         1397.078    2.909859E-22
         1398.618    2.908910E-22
          1400.16    2.907972E-22
         1401.703    2.907278E-22
         1403.248    2.906567E-22
         1404.795    2.905838E-22
         1406.343    2.905094E-22
         1407.894    2.904332E-22
         1409.446    2.903554E-22
         1410.999    2.902854E-22
         1412.555    2.902189E-22
         1414.112    2.901508E-22
          1415.67    2.900812E-22
         1417.231    2.900098E-22
         1418.793    2.899369E-22
         1420.357    2.898608E-22
         1421.923    2.897781E-22
         1423.491    2.896938E-22
         1425.059    2.896079E-22
          1426.63    2.895202E-22
         1428.203    2.894310E-22
         1429.777    2.893401E-22
         1431.354    2.892289E-22
         1432.932    2.891129E-22
          1434.51    2.889953E-22
         1436.092    2.888759E-22
         1437.676    2.887548E-22
          1439.26    2.886320E-22
         1440.847    2.884846E-22
         1442.435    2.883154E-22
         1444.024    2.881445E-22
         1445.617    2.879716E-22
          1447.21    2.877969E-22
         1448.805    2.876204E-22
         1450.402    2.874259E-22
         1452.001    2.871812E-22
         1453.602    2.869342E-22
         1455.205    2.866855E-22
         1456.808    2.864348E-22
         1458.414    2.861820E-22
         1460.022    2.859262E-22
         1461.631    2.855898E-22
         1463.243    2.852514E-22
         1464.856    2.849108E-22
          1466.47    2.845682E-22
         1468.086    2.842232E-22
         1469.706    2.838758E-22
         1471.325    2.834428E-22
         1472.947    2.829887E-22
         1474.571    2.825321E-22
         1476.196    2.820734E-22
         1477.824    2.816118E-22
         1479.453    2.811481E-22
         1481.083    2.806035E-22
         1482.716    2.800162E-22
          1484.35    2.794264E-22
         1485.987    2.788339E-22
         1487.625    2.784533E-22
         1489.264    2.784153E-22
         1490.906    2.782955E-22
         1492.549    2.781074E-22
         1494.195    2.779123E-22
         1495.842    2.777101E-22
         1497.491    2.775010E-22
         1499.142    2.772848E-22
         1500.794    2.768869E-22
         1502.449    2.762909E-22
         1504.105    2.756866E-22
         1505.763    2.750731E-22
         1507.423    2.744508E-22
         1509.084    2.738199E-22
         1510.748    2.731312E-22
         1512.414    2.723748E-22
          1514.08    2.716094E-22
         1515.749    2.708345E-22
         1517.419    2.700507E-22
         1519.093    2.692569E-22
         1520.768    2.684248E-22
         1522.444    2.675488E-22
         1524.122    2.666637E-22
         1525.802    2.657690E-22
         1527.484    2.648649E-22
         1529.168    2.639515E-22
         1530.854    2.630143E-22
          1532.54    3.127951E-12
          1534.23    6.534306E-12
         1535.921    9.918793E-12
         1537.615    1.328232E-11
          1539.31    1.662007E-11
         1541.006    1.993652E-11
         1542.705    2.323020E-11
         1544.405    2.649851E-11
         1546.109    2.969817E-11
         1547.812    3.283207E-11
         1549.518    3.592743E-11
         1551.227    3.898811E-11
         1552.936    4.201009E-11
         1554.648    4.499450E-11
         1556.363    4.794145E-11
         1558.078    5.084640E-11
         1559.795    5.371325E-11
         1561.515    5.655828E-11
         1563.235    5.936678E-11
         1564.958    6.213931E-11
         1566.685    6.487590E-11
         1568.411    6.757243E-11
          1570.14    7.023537E-11
         1571.871    7.289287E-11
         1573.603    7.551421E-11
         1575.338    7.810207E-11
         1577.075    8.065628E-11
         1578.813    8.317310E-11
         1580.553    8.567334E-11
         1582.295    8.817703E-11
         1584.039    9.065068E-11
         1585.785    9.309273E-11
         1587.534    9.550320E-11
         1589.284    9.788205E-11
         1591.036    1.002749E-10
          1592.79    1.026712E-10
         1594.545    1.050387E-10
         1596.303    1.073799E-10
         1598.062    1.096935E-10
         1599.824    1.119794E-10
         1601.588    1.143307E-10
         1603.353    1.166681E-10
          1605.12    1.189837E-10
          1606.89    1.212765E-10
         1608.661    1.235464E-10
         1610.434    1.258229E-10
          1612.21    1.281720E-10
         1613.986    1.305021E-10
         1615.765    1.328153E-10
         1617.548    1.351119E-10
          1619.33    1.373879E-10
         1621.115    1.397357E-10
         1622.902    1.421232E-10
          1624.69    1.444968E-10
         1626.482    1.468599E-10
         1628.275    1.492082E-10
         1630.069    1.515507E-10
         1631.867    1.540364E-10
         1633.665    1.565135E-10
         1635.466    1.589861E-10
         1637.269    1.614504E-10
         1639.074    1.639073E-10
          1640.88    1.664448E-10
         1642.689    1.690748E-10
           1644.5    1.717035E-10
         1646.313    1.743312E-10
         1648.128    1.769685E-10
         1649.944    1.797463E-10
         1651.763    1.827285E-10
         1653.585    1.857289E-10
         1655.407    1.887361E-10
         1657.232    1.917553E-10
         1659.058    1.947831E-10
         1660.888    1.979240E-10
         1662.719    2.011842E-10
         1664.552    2.044616E-10
         1666.386    2.077545E-10
         1668.223    2.110662E-10
         1670.062    2.144018E-10
         1671.903    2.179483E-10
         1673.746    2.215182E-10
          1675.59    2.251104E-10
         1677.437    2.287285E-10
         1679.287    2.323708E-10
         1681.139    2.361552E-10
         1682.991    2.400375E-10
         1684.847    2.439523E-10
         1686.704    2.478978E-10
         1688.563    2.518722E-10
         1690.425    2.559213E-10
         1692.287    2.601346E-10
         1694.153    2.643870E-10
         1696.021    2.686765E-10
          1697.89    2.730010E-10
         1699.762    2.773675E-10
         1701.636    2.819106E-10
         1703.512    2.865173E-10
         1705.389    2.911643E-10
         1707.269    2.958575E-10
         1709.151    3.005945E-10
         1711.035    3.054574E-10
         1712.922    3.104353E-10
         1714.809    3.154602E-10
         1716.699    3.205368E-10
         1718.592    3.256634E-10
         1720.485    3.308700E-10
         1722.383    3.362288E-10
         1724.281    3.416361E-10
         1726.182    3.471018E-10
         1728.086    3.526258E-10
          1729.99    3.582004E-10
         1731.897    3.639456E-10
         1733.806    3.697516E-10
         1735.718    3.756180E-10
          1737.63    3.815423E-10
         1739.546    3.875308E-10
         1741.463    3.936506E-10
         1743.383    3.998561E-10
         1745.305    4.061270E-10
         1747.228    4.124608E-10
         1749.154    4.188642E-10
         1751.084    4.249662E-10
         1753.013    4.308244E-10
         1754.946    4.367341E-10
          1756.88    4.426932E-10
         1758.817    4.487014E-10
         1760.756    4.547822E-10
         1762.697    4.609494E-10
         1764.639    4.671650E-10
         1766.585    4.734353E-10
         1768.532    4.797580E-10
         1770.482    4.861484E-10
         1772.434    4.926377E-10
         1774.387    4.991813E-10
         1776.343    5.057767E-10
         1778.301    5.124302E-10
         1780.262    5.191503E-10
         1782.224    5.259709E-10
         1784.189    5.328523E-10
         1786.156    5.397913E-10
         1788.124    5.467849E-10
         1790.096    5.538466E-10
         1792.068    5.610241E-10
         1794.044    5.682654E-10
         1796.022    5.755676E-10
         1798.001    5.829274E-10
         1799.984    5.903558E-10
         1801.968    5.979003E-10
         1803.954    6.055087E-10
         1805.942    6.131776E-10
         1807.933    6.209137E-10
         1809.926    6.287144E-10
         1811.922    6.366473E-10
         1813.919    6.446488E-10
         1815.918    6.527132E-10
          1817.92    6.608495E-10
         1819.925    6.690569E-10
          1821.93    6.773909E-10
         1823.938    6.858007E-10
         1825.948    6.942774E-10
         1827.962    7.028327E-10
         1829.976    7.114510E-10
         1831.995    7.202217E-10
         1834.013    7.290575E-10
         1836.035    7.379717E-10
         1838.059    7.469602E-10
         1840.084    7.560216E-10
         1842.113    7.652320E-10
         1844.144    7.745192E-10
         1846.177    7.838835E-10
         1848.212    7.933260E-10
         1850.248    8.028514E-10
         1852.288    8.125277E-10
          1854.33    8.222848E-10
         1856.375    8.321284E-10
         1858.421    8.420429E-10
         1860.469    8.520634E-10
          1862.52    8.622264E-10
         1864.573    8.724784E-10
         1866.628    8.828157E-10
         1868.686    8.932380E-10
         1870.746    9.037758E-10
         1872.808    9.144528E-10
         1874.872    9.252130E-10
         1876.939    9.360671E-10
         1879.008    9.470073E-10
         1881.079    9.572508E-10
         1883.153    9.676070E-10
         1885.229    9.780353E-10
         1887.307    9.885306E-10
         1889.387    9.991032E-10
         1891.471     3.283862E-8
         1893.555     7.832154E-8
         1895.643     1.243212E-7
         1897.732     1.708133E-7
         1899.823     2.177806E-7
         1901.919     2.653165E-7
         1904.014     3.133141E-7
         1906.113     3.618495E-7
         1908.215     4.108996E-7
         1910.317     5.068939E-7
         1912.424     8.671199E-7
         1914.532     1.230935E-6
         1916.643     1.599032E-6
         1918.755     1.970746E-6
          1920.87     2.346675E-6
         1922.988     2.726729E-6
         1925.107     3.110669E-6
          1927.23     3.499067E-6
         1929.354     3.891183E-6
         1931.481     4.111083E-6
          1933.61     4.255690E-6
          1935.74     4.401628E-6
         1937.875     4.549138E-6
         1940.011     4.697915E-6
         1942.149     4.848458E-6
          1944.29     5.000445E-6
         1946.434     5.153892E-6
          1948.58     5.308797E-6
         1950.728     5.456520E-6
         1952.878     5.588635E-6
          1955.03     5.721904E-6
         1957.185     5.856456E-6
         1959.343     5.992224E-6
         1961.503     6.129394E-6
         1963.665     6.267876E-6
         1965.829     6.407534E-6
         1967.996     6.548513E-6
         1970.167     6.690128E-6
         1972.339     6.824536E-6
         1974.512     6.960054E-6
         1976.689     7.096824E-6
         1978.868     7.234778E-6
         1981.049     7.374045E-6
         1983.233     7.514650E-6
         1985.418     7.656388E-6
         1987.607     7.799417E-6
         1989.798     7.943660E-6
         1991.992     8.179162E-6
         1994.188     8.426054E-6
         1996.386     8.675250E-6
         1998.586     8.926645E-6
         2000.789     9.183404E-6
         2002.996     9.448168E-6
         2005.203     9.715503E-6
         2007.414     9.985822E-6
         2009.627     1.025901E-5
         2011.841     1.049519E-5
          2014.06     1.072590E-5
         2016.279     1.095870E-5
         2018.502     1.119397E-5
         2020.727     1.143156E-5
         2022.955     1.167142E-5
         2025.185     1.191366E-5
         2027.417     1.215831E-5
         2029.652     1.240536E-5
         2031.889     1.285199E-5
         2034.129     1.334017E-5
         2036.371     1.383373E-5
         2038.616     1.433259E-5
         2040.864     1.483666E-5
         2043.112     1.534565E-5
         2045.365     1.586029E-5
         2047.621     1.638064E-5
         2049.877     1.690595E-5
         2052.137     1.747017E-5
         2054.399     1.804215E-5
         2056.664     1.862008E-5
         2058.931     1.920407E-5
         2061.201     1.979337E-5
         2063.472     2.038779E-5
         2065.747     2.098849E-5
         2068.024     2.159532E-5
         2070.304     2.222002E-5
         2072.586     2.292823E-5
         2074.871     2.364348E-5
         2077.157     2.436565E-5
         2079.447     2.509533E-5
          2081.74     2.583084E-5
         2084.034     2.657233E-5
         2086.332     2.732133E-5
         2088.632     2.807765E-5
         2090.933     2.893817E-5
          2093.24     2.995170E-5
         2095.546     3.097401E-5
         2097.856     3.200676E-5
         2100.169     3.304929E-5
         2102.483     3.409761E-5
         2104.802     3.515698E-5
         2107.121     3.622514E-5
         2109.444     3.730393E-5
         2111.769     3.852103E-5
         2114.097     3.979000E-5
         2116.428     4.107057E-5
          2118.76     4.236229E-5
         2121.097     4.366366E-5
         2123.434     4.497142E-5
         2125.775     4.629130E-5
         2128.118     4.762285E-5
         2130.463     4.902042E-5
         2132.813     5.065702E-5
         2135.163     5.230605E-5
         2137.518     5.397081E-5
         2139.875     5.566468E-5
         2142.231     5.736471E-5
         2144.594     5.908158E-5
         2146.958     6.081261E-5
         2149.325     6.255865E-5
         2151.693     6.470663E-5
         2154.065     6.702916E-5
          2156.44     6.937129E-5
         2158.817     7.173334E-5
         2161.197     7.410674E-5
         2163.578     7.648891E-5
         2165.964     7.889171E-5
         2168.353     8.131481E-5
         2170.743     8.393555E-5
         2173.135     8.697486E-5
         2175.529     9.003731E-5
         2177.929     9.312620E-5
         2180.329     9.623133E-5
         2182.733     9.933853E-5
         2185.138     1.024645E-4
         2187.547     1.056141E-4
         2189.959     1.087859E-4
         2192.372     1.128880E-4
         2194.789     1.170345E-4
         2197.208     1.212086E-4
         2199.632     1.254118E-4
         2202.056     1.303943E-4
         2204.482     1.355919E-4
         2206.912     1.408771E-4
         2209.345     1.462481E-4
         2211.782     1.528300E-4
         2214.219     1.599287E-4
          2216.66     1.671476E-4
         2219.104     1.744841E-4
         2221.549     1.819158E-4
         2223.998     1.894559E-4
         2226.449     1.971134E-4
         2228.904     2.048898E-4
         2231.361     2.139460E-4
          2233.82     2.240822E-4
         2236.284     2.343856E-4
         2238.748     2.448368E-4
         2241.217     2.554356E-4
         2243.687     2.661591E-4
         2246.159     2.770400E-4
         2248.636     2.880902E-4
         2251.114     3.007653E-4
         2253.597     3.154610E-4
          2256.08     3.303563E-4
         2258.567     3.454743E-4
         2261.057     3.607864E-4
         2263.548     3.762711E-4
         2266.045     3.919871E-4
         2268.542     4.079037E-4
         2271.042     4.259845E-4
         2273.546     4.470455E-4
         2276.051     4.683851E-4
         2278.562     4.900362E-4
         2281.072     5.119357E-4
         2283.588     5.341140E-4
         2286.104     5.565612E-4
         2288.623     5.793025E-4
         2291.147     6.057040E-4
         2293.672     6.364650E-4
         2296.202     6.676795E-4
         2298.732     6.995307E-4
         2301.266     7.318052E-4
         2303.803     7.644842E-4
         2306.342     7.975824E-4
         2308.885     8.311477E-4
         2311.431     8.696708E-4
