#  Table wf3f439wsys.tab  Mon 12:22:16 02-Jun-97

#      WAVELENGTH      THROUGHPUT
#       angstroms                

            1850.     1.426508E-8
         1851.651     1.560628E-8
         1853.301     1.695911E-8
         1854.956     1.832757E-8
         1856.611     1.970728E-8
         1858.267     2.110025E-8
         1859.925     2.250735E-8
         1861.584     9.752391E-8
         1863.246     1.768304E-7
         1864.909     2.569362E-7
         1866.572     3.377863E-7
         1868.237     4.194433E-7
         1869.904     5.019543E-7
         1871.573     4.292951E-7
         1873.242     3.463724E-7
         1874.913     2.626048E-7
         1876.585     1.779815E-7
          1878.26     9.243546E-8
         1879.937     6.027363E-9
         1881.613     8.151464E-9
         1883.292     1.381643E-8
         1884.973     1.953394E-8
         1886.654     2.529754E-8
         1888.338     3.111453E-8
         1890.023     3.946671E-8
         1891.709     2.286857E-7
         1893.396     4.195776E-7
         1895.086     6.122465E-7
         1896.775     8.063488E-7
         1898.469     1.002495E-6
         1900.163     1.162342E-6
         1901.857     9.672269E-7
         1903.555     7.701038E-7
         1905.254     5.712042E-7
         1906.953     3.706660E-7
         1908.655     1.682239E-7
         1910.357     1.140551E-8
         1912.061     3.216654E-8
         1913.768     5.312279E-8
         1915.476     7.426461E-8
         1917.184     9.557891E-8
         1918.894     1.170799E-7
         1920.606     1.250495E-7
          1922.32     1.079100E-7
         1924.035     9.061538E-8
         1925.752     7.317372E-8
          1927.47     5.556587E-8
         1929.189     3.781008E-8
          1930.91     4.917233E-8
         1932.634     8.685973E-8
         1934.358     1.248794E-7
         1936.084     1.632082E-7
         1937.811     2.018767E-7
          1939.54     2.409056E-7
          1941.27     2.415550E-7
         1943.003     2.281125E-7
         1944.737     2.145435E-7
          1946.47     2.008647E-7
         1948.207     1.870422E-7
         1949.947     1.730839E-7
         1951.685     1.558427E-7
         1953.427     1.383206E-7
         1955.171     1.206391E-7
         1956.913     1.028192E-7
          1958.66     8.481660E-8
         1960.408     7.089197E-8
         1962.157     7.083844E-8
         1963.908     7.078236E-8
         1965.658     7.072384E-8
         1967.413     7.066272E-8
         1969.169     7.059908E-8
         1970.925     8.791746E-8
         1972.684     1.211072E-7
         1974.444     1.545672E-7
         1976.205     1.883191E-7
         1977.969     2.224042E-7
         1979.734     2.567432E-7
           1981.5     2.636150E-7
         1983.268     2.655885E-7
         1985.037     2.675709E-7
         1986.809     2.695643E-7
         1988.581     2.715665E-7
         1990.355     2.647437E-7
         1992.131     2.224282E-7
         1993.908     1.797352E-7
         1995.688     1.366101E-7
         1997.467     9.318494E-8
          1999.25     4.932459E-8
         2001.034     5.435781E-8
         2002.818     9.534110E-8
         2004.606     1.368120E-7
         2006.396     1.786743E-7
         2008.184     2.208977E-7
         2009.976     2.635909E-7
         2011.769     2.596957E-7
         2013.565     2.551179E-7
         2015.362     2.504854E-7
         2017.158     2.458040E-7
         2018.958     2.410621E-7
          2020.76     2.210426E-7
         2022.563     1.798784E-7
         2024.368     1.382709E-7
         2026.173     9.627424E-8
         2027.982     5.382951E-8
         2029.791     1.098892E-8
         2031.602     1.080455E-7
         2033.414     2.244287E-7
         2035.228     3.419493E-7
         2037.044     4.606850E-7
         2038.861     5.804984E-7
         2040.681     6.250902E-7
         2042.502     5.415723E-7
         2044.324     4.572718E-7
         2046.147     3.721457E-7
         2047.974     2.861264E-7
           2049.8     1.993190E-7
          2051.63     1.742238E-7
         2053.461     1.565942E-7
         2055.291     1.388117E-7
         2057.125     1.208353E-7
         2058.961     1.026827E-7
         2060.798     8.805319E-8
         2062.637     7.810089E-8
         2064.477     6.805909E-8
         2066.318     5.792205E-8
         2068.164     4.767571E-8
         2070.007     3.736725E-8
         2071.855     3.122984E-8
         2073.704     2.503551E-8
         2075.553     1.878732E-8
         2077.405     1.248173E-8
         2079.259     6.112590E-9
         2081.113     5.242485E-9
         2082.971     8.081449E-9
         2084.829     1.094400E-8
         2086.688     1.383172E-8
          2088.55     1.674704E-8
         2090.414     1.937043E-8
         2092.279     2.089851E-8
         2094.145     2.243915E-8
         2096.014     2.399401E-8
         2097.885     2.556176E-8
         2099.756     2.714162E-8
          2101.63     4.176879E-8
         2103.503     5.846211E-8
         2105.381     7.531438E-8
          2107.26     9.231118E-8
         2109.139     1.094398E-7
         2111.022     1.196188E-7
         2112.906     1.238712E-7
         2114.789     1.281506E-7
         2116.677     1.324683E-7
         2118.564     1.368161E-7
         2120.455     1.374339E-7
         2122.348     1.261287E-7
         2124.241     1.147399E-7
         2126.135     1.032569E-7
         2128.033     9.167469E-8
         2129.932     7.999733E-8
         2131.832     6.655297E-8
         2133.734     5.294063E-8
         2135.637     3.922531E-8
         2137.544     2.538702E-8
          2139.45     1.146322E-8
         2141.359     6.982149E-9
          2143.27     6.346574E-9
         2145.182     5.706242E-9
         2147.096     5.060475E-9
         2149.011     4.409987E-9
         2150.929     6.176096E-9
         2152.848     1.054056E-8
         2154.768     1.493727E-8
         2156.692     1.937204E-8
         2158.615     2.383092E-8
         2160.541     2.845649E-8
         2162.469     3.344243E-8
         2164.397     3.845654E-8
          2166.33     4.351486E-8
         2168.263     4.860550E-8
         2170.196     5.227038E-8
         2172.133     4.302269E-8
          2174.07     3.372102E-8
         2176.011     2.435103E-8
         2177.953     1.491948E-8
         2179.895     5.433276E-9
          2181.84     5.419577E-9
         2183.787     5.950754E-9
         2185.735     6.484826E-9
         2187.686     7.022347E-9
         2189.637     7.562720E-9
          2191.59     1.123698E-8
         2193.546     1.565197E-8
         2195.503     2.009078E-8
         2197.462     2.455181E-8
         2199.423     2.904074E-8
         2201.385     2.691575E-8
         2203.348     2.195677E-8
         2205.315     1.690898E-8
         2207.283     1.177561E-8
         2209.252     6.559430E-9
         2211.222     5.554892E-9
         2213.196     7.188323E-9
          2215.17     8.845984E-9
         2217.147     1.053047E-8
         2219.125     1.224069E-8
         2221.104     1.227024E-8
         2223.086     1.093576E-8
         2225.071     9.578909E-9
         2227.055     8.202937E-9
         2229.042     6.803519E-9
         2231.031     6.368977E-9
         2233.021     6.850932E-9
         2235.015     7.340042E-9
         2237.008     7.835141E-9
         2239.003     8.336916E-9
         2241.002     9.216420E-9
         2242.999     1.047788E-8
         2245.002     1.175881E-8
         2247.005     1.305556E-8
         2249.009     1.436976E-8
         2251.016     1.667758E-8
         2253.024     1.997263E-8
         2255.033     2.331122E-8
         2257.046     2.669605E-8
         2259.061     3.012489E-8
         2261.075     2.900208E-8
         2263.092     2.382177E-8
         2265.112     1.856800E-8
         2267.134     1.324352E-8
         2269.156     7.851932E-9
         2271.181     5.600761E-9
         2273.207     5.633791E-9
         2275.234     5.666901E-9
         2277.266     5.700132E-9
         2279.296     5.733374E-9
          2281.33     1.535850E-8
         2283.366     3.020944E-8
         2285.402     4.522466E-8
         2287.441     6.044099E-8
         2289.483     7.583949E-8
         2291.525     8.544234E-8
          2293.57     9.312396E-8
         2295.615     1.008827E-7
         2297.663     1.087674E-7
         2299.715     1.167565E-7
         2301.765     1.313490E-7
          2303.82     1.471957E-7
         2305.876     1.632287E-7
         2307.932     1.794390E-7
         2309.992     1.958490E-7
         2312.051     1.610727E-7
         2314.116     1.256078E-7
          2316.18     8.975093E-8
         2318.246     5.346704E-8
         2320.315     2.186897E-8
         2322.385     1.876074E-8
         2324.457     1.561309E-8
         2326.531     1.242993E-8
         2328.606     9.208878E-9
         2330.685     7.048945E-9
         2332.764     7.121686E-9
         2334.845     7.194934E-9
         2336.927     7.268674E-9
         2339.012     7.342916E-9
         2341.101     7.364750E-9
         2343.188     7.338653E-9
         2345.279     7.311935E-9
         2347.372     7.284574E-9
         2349.467     7.256590E-9
         2351.562     1.153358E-8
         2353.661     1.733896E-8
         2355.759     2.319855E-8
         2357.862     2.912831E-8
         2359.966     3.512034E-8
         2362.071     2.957353E-8
         2364.179     2.377083E-8
         2366.288     1.790989E-8
         2368.398     1.198642E-8
         2370.512     7.520854E-9
         2372.628     7.803978E-9
         2374.744     8.089528E-9
         2376.863     8.377871E-9
         2378.983     8.668691E-9
         2381.105     8.673508E-9
          2383.23     8.410962E-9
         2385.357     8.145519E-9
         2387.485     7.877290E-9
         2389.615     7.606145E-9
         2391.747     1.832862E-8
         2393.881     3.158474E-8
         2396.017     4.497620E-8
         2398.154     5.848663E-8
         2400.293     6.845687E-8
         2402.435     5.528712E-8
          2404.58     4.198985E-8
         2406.724     2.857523E-8
         2408.872     1.502599E-8
         2411.022     9.151153E-9
         2413.171     1.186832E-8
         2415.326     1.461504E-8
         2417.479     1.738115E-8
         2419.637     2.017582E-8
         2421.796     1.995979E-8
         2423.957     1.912536E-8
          2426.12     1.828249E-8
         2428.284     1.743218E-8
         2430.451     1.674657E-8
         2432.619     1.671735E-8
         2434.789     1.668744E-8
         2436.962     1.665682E-8
         2439.136     1.662550E-8
         2441.312     2.282508E-8
          2443.49     3.319587E-8
          2445.67     4.366016E-8
         2447.853     5.421364E-8
         2450.036     6.448054E-8
         2452.222     5.309479E-8
         2454.409     4.161251E-8
           2456.6     3.002554E-8
         2458.792     1.834248E-8
         2460.985     1.279548E-8
          2463.18     1.487325E-8
         2465.379     1.696916E-8
         2467.579     1.908164E-8
         2469.778     2.120840E-8
         2471.983     3.112799E-8
          2474.19     4.200638E-8
         2476.396     5.295252E-8
         2478.606     6.399935E-8
         2480.817     7.168429E-8
         2483.029     7.352732E-8
         2485.247     7.538596E-8
         2487.462     7.725433E-8
         2489.682     7.913823E-8
         2491.904     7.027270E-8
         2494.125     5.954472E-8
         2496.353     4.871005E-8
         2498.579     3.780147E-8
         2500.808     2.909041E-8
          2503.04     2.434356E-8
         2505.272     1.956186E-8
         2507.509     1.473833E-8
         2509.745     9.880238E-9
         2511.985     9.352771E-9
         2514.225     9.385452E-9
         2516.468     9.418200E-9
         2518.714     9.451027E-9
         2520.962     1.095364E-8
          2523.21     1.443920E-8
         2525.462     1.795410E-8
         2527.715     2.149388E-8
         2529.971     2.506322E-8
         2532.229     2.185449E-8
         2534.486     1.853419E-8
         2536.748     1.518349E-8
          2539.01     1.178904E-8
         2541.277     1.023779E-8
         2543.545     1.012762E-8
         2545.813     1.001693E-8
         2548.084     9.905663E-9
         2550.358     1.005638E-8
         2552.635     1.161613E-8
         2554.911     1.318096E-8
         2557.191     1.475320E-8
         2559.471     1.632980E-8
         2561.755     1.652333E-8
         2564.042     1.629705E-8
         2566.329     1.606977E-8
         2568.619     1.584125E-8
         2570.908     2.601427E-8
         2573.205     5.213542E-8
           2575.5     7.832664E-8
         2577.797     1.046293E-7
         2580.097     1.288732E-7
         2582.399     1.038439E-7
         2584.704     7.869138E-8
          2587.01     5.343728E-8
         2589.318     2.808999E-8
         2591.629     2.068054E-8
          2593.94     2.082109E-8
         2596.254     2.096194E-8
         2598.573     2.110329E-8
         2600.889     3.481706E-8
          2603.21     7.048294E-8
         2605.532     1.062739E-7
         2607.856     1.422156E-7
         2610.185     1.731048E-7
         2612.512     1.431754E-7
         2614.843     1.130834E-7
         2617.177     8.286058E-8
          2619.51     5.254547E-8
         2621.849     8.155500E-8
         2624.188     1.264477E-7
         2626.528     1.715280E-7
         2628.873     2.168282E-7
         2631.217     2.169556E-7
         2633.566     1.749568E-7
         2635.916     1.327771E-7
         2638.267     9.043911E-8
          2640.62     5.621867E-8
         2642.977     4.509378E-8
         2645.334     3.392680E-8
         2647.695     2.270519E-8
         2650.057     1.184173E-8
         2652.422     1.717777E-8
         2654.788     2.253302E-8
         2657.157     2.791457E-8
         2659.526     3.331236E-8
         2661.899     2.991847E-8
         2664.275     2.430171E-8
         2666.652     1.866365E-8
         2669.031     1.299802E-8
         2671.412     1.242947E-8
         2673.796     1.537973E-8
         2676.181     1.834043E-8
          2678.57     2.131544E-8
          2680.96     3.053318E-8
          2683.35     4.907338E-8
         2685.746     6.772543E-8
          2688.14     8.642251E-8
          2690.54     9.653640E-8
         2692.941     7.668235E-8
         2695.343     5.675216E-8
         2697.748     3.672587E-8
         2700.153     1.808670E-8
         2702.563     2.073392E-8
         2704.975     2.339985E-8
         2707.387     2.608319E-8
         2709.804     2.878750E-8
         2712.222     2.509234E-8
         2714.642     2.080380E-8
         2717.063     1.648406E-8
         2719.486     1.213215E-8
         2721.915     1.123436E-8
         2724.343     1.127008E-8
         2726.772     1.130584E-8
         2729.205     1.134165E-8
          2731.64     2.392503E-8
         2734.078     4.270822E-8
         2736.517     6.161520E-8
         2738.958     8.065572E-8
         2741.402     7.937828E-8
         2743.849     6.281687E-8
         2746.296     4.614642E-8
         2748.747     2.934502E-8
         2751.198     1.963845E-8
         2753.653     1.742539E-8
         2756.111     1.520674E-8
         2758.569     1.298384E-8
         2761.031     1.169194E-8
         2763.495     1.170125E-8
         2765.958     1.171056E-8
         2768.427     1.171989E-8
         2770.898     1.182581E-8
         2773.369     1.210123E-8
         2775.844     1.237748E-8
          2778.32     1.265425E-8
         2780.799     2.386972E-8
          2783.28     5.817381E-8
         2785.764     9.256475E-8
         2788.249     1.270156E-7
         2790.736     1.412299E-7
         2793.227     1.070341E-7
          2795.72     7.275649E-8
         2798.213     3.841708E-8
         2800.709     2.079712E-8
         2803.209     4.554306E-8
         2805.709     7.033269E-8
         2808.213     9.519760E-8
         2810.718     1.130503E-7
         2813.226     1.133573E-7
         2815.736     1.136647E-7
         2818.247     1.139726E-7
         2820.764     1.229855E-7
         2823.278     1.519688E-7
         2825.798     1.810541E-7
          2828.32     2.102050E-7
         2830.843     2.147180E-7
         2833.369     1.699300E-7
         2835.898     1.250376E-7
         2838.426     8.010153E-8
         2840.959     4.825024E-8
         2843.495     3.810124E-8
         2846.031     2.793604E-8
         2848.571     1.774090E-8
         2851.112     1.200346E-8
         2853.655     1.201117E-8
         2856.202     1.201889E-8
         2858.751     1.202662E-8
         2861.301     1.256484E-8
         2863.853     1.361455E-8
         2866.407     1.466657E-8
         2868.965     1.572150E-8
         2871.526     1.848421E-8
         2874.087     2.240819E-8
         2876.652     2.634325E-8
         2879.218     3.028380E-8
         2881.788     2.803021E-8
         2884.358     2.305604E-8
         2886.931     1.807118E-8
         2889.507     1.307325E-8
         2892.084     1.686955E-8
         2894.666     2.276120E-8
         2897.248     2.866186E-8
         2899.832     3.457378E-8
         2902.421     5.994747E-8
          2905.01     8.659619E-8
         2907.601     1.132024E-7
         2910.198     1.355640E-7
          2912.79     1.066146E-7
         2915.392     7.764148E-8
         2917.992     4.875405E-8
         2920.594     2.659990E-8
         2923.203     2.704800E-8
         2925.807     2.749410E-8
          2928.42     2.794034E-8
         2931.033     2.651684E-8
         2933.646     2.224414E-8
         2936.266     1.797138E-8
         2938.885     1.371173E-8
         2941.506     2.874776E-8
         2944.131     5.804880E-8
         2946.757     8.727715E-8
         2949.387     1.164677E-7
         2952.018     1.025114E-7
         2954.653     7.549470E-8
          2957.29     4.852923E-8
         2959.926     2.164760E-8
         2962.567     2.638153E-8
          2965.21     3.201587E-8
         2967.856     3.764166E-8
         2970.505     4.063655E-8
         2973.155     3.251706E-8
         2975.808     2.440841E-8
         2978.461     1.632636E-8
         2981.121     1.279941E-8
          2983.78     1.552765E-8
         2986.441     1.825015E-8
         2989.104     2.096662E-8
         2991.772     2.362284E-8
         2994.442     2.624433E-8
         2997.113     2.885868E-8
         2999.788     3.146896E-8
         3002.464     4.206350E-8
         3005.142     5.332100E-8
         3007.826     6.456791E-8
         3010.507     7.049318E-8
         3013.194     5.376954E-8
         3015.883     3.708258E-8
         3018.573     2.044307E-8
         3021.267     1.159496E-8
          3023.96     1.150885E-8
          3026.66     1.142270E-8
          3029.36     1.133677E-8
         3032.062     1.202261E-8
          3034.77     1.294721E-8
         3037.475     1.386790E-8
         3040.186     1.465810E-8
         3042.897     1.369336E-8
         3045.612     1.273074E-8
         3048.332     1.176913E-8
         3051.051     1.305203E-8
         3053.772     1.788781E-8
         3056.497     2.271510E-8
         3059.222     2.752391E-8
         3061.954     2.538960E-8
         3064.685     2.050443E-8
         3067.418     1.563085E-8
         3070.156     1.114835E-8
         3072.896     1.298627E-8
         3075.637     1.481846E-8
          3078.38     1.664571E-8
         3081.126     1.725100E-8
         3083.877     1.610349E-8
         3086.628     1.496017E-8
         3089.381     1.381981E-8
         3092.137     2.093167E-8
         3094.895     3.041189E-8
         3097.659     3.987840E-8
         3100.422     4.880539E-8
         3103.187     5.494499E-8
         3105.955     6.110844E-8
         3108.729     6.730340E-8
         3111.501     6.772208E-8
