#  Table wf3f850lpsys.tab  Mon 12:22:24 02-Jun-97

#      WAVELENGTH      THROUGHPUT
#       angstroms                

            7900.              0.
          7901.31     1.043242E-6
         7902.616     2.082009E-6
         7903.926     3.122560E-6
         7905.237     4.162153E-6
         7906.543     5.197302E-6
         7907.854     6.234187E-6
         7909.166     7.270517E-6
         7910.472     8.301648E-6
         7911.784     9.335663E-6
         7913.096     1.036797E-5
         7914.403     1.139584E-5
         7915.716     1.242623E-5
         7917.028     1.345527E-5
         7918.336     1.447951E-5
         7919.649     1.550626E-5
         7920.958     1.652822E-5
         7922.271     1.755267E-5
         7923.585     1.857578E-5
         7924.895     1.959450E-5
         7926.208     2.061531E-5
         7927.523     2.163514E-5
         7928.833     2.265025E-5
         7930.147     2.366740E-5
         7931.462     2.468364E-5
         7932.773     2.569512E-5
         7934.088     2.670906E-5
         7935.404     2.772164E-5
         7936.711     2.872652E-5
         7938.031     2.974019E-5
         7939.347     3.074915E-5
         7940.659     3.175378E-5
         7941.976     3.276085E-5
         7943.289     3.376321E-5
         7944.605     3.476761E-5
         7945.923     3.577103E-5
          7947.24     3.677312E-5
         7948.554     3.777093E-5
         7949.867     3.876738E-5
         7951.189     3.976920E-5
         7952.503     4.076343E-5
         7953.822     4.176000E-5
         7955.137     4.275195E-5
         7956.451     4.374254E-5
         7957.775     4.473880E-5
          7959.09     4.572713E-5
          7960.41     4.671780E-5
         7961.729     4.770717E-5
         7963.041     4.868901E-5
         7964.365     4.967901E-5
         7965.686     5.066512E-5
         7967.002     5.164665E-5
         7968.323     5.263010E-5
          7969.64     5.360932E-5
         7970.961     5.459052E-5
         7972.283     5.557076E-5
         7973.605     5.654969E-5
         7974.923     5.752439E-5
         7976.241     5.849778E-5
         7977.567     5.947632E-5
         7978.886     6.044743E-5
         7980.209     6.142083E-5
         7981.532     6.239258E-5
         7982.847     6.335730E-5
          7984.17     6.432713E-5
         7985.499     6.529887E-5
         7986.818     6.626287E-5
         7988.142     6.722909E-5
         7989.458     6.818795E-5
         7990.783     6.915192E-5
         7992.112     7.011781E-5
         7993.433     7.107634E-5
         7994.758     7.203710E-5
         7996.079     7.299301E-5
         7997.401     7.394829E-5
         7998.731     7.490826E-5
         8000.057     7.586318E-5
         8001.379     7.679356E-5
         8002.702     7.772211E-5
         8004.029     7.865219E-5
         8005.355     7.958009E-5
         8006.683     8.050680E-5
         8008.011     8.143164E-5
          8009.33     8.234850E-5
         8010.658     8.326999E-5
          8011.99     8.419266E-5
         8013.314     8.510740E-5
         8014.643     8.602366E-5
         8015.967     8.693533E-5
         8017.292     8.784519E-5
         8018.625     8.875921E-5
         8019.955     8.966868E-5
         8021.276     9.057069E-5
         8022.606     9.147650E-5
         8023.937     9.238112E-5
         8025.267     9.328354E-5
         8026.597     9.418443E-5
         8027.919     9.507788E-5
          8029.25     9.597543E-5
         8030.582     9.687112E-5
         8031.913     9.776530E-5
         8033.245     9.865794E-5
         8034.573     9.954582E-5
           8035.9     1.004318E-4
         8037.233     1.013193E-4
          8038.57     1.022078E-4
         8039.898     1.030886E-4
         8041.227     1.039682E-4
          8042.56     1.048486E-4
         8043.889     1.057246E-4
         8045.228     1.066049E-4
         8046.561     1.074800E-4
         8047.887     1.083482E-4
         8049.221     1.092204E-4
         8050.556     1.100907E-4
         8051.891     1.109595E-4
         8053.226     1.118264E-4
         8054.556     1.126887E-4
         8055.887     1.135494E-4
         8057.223     1.144115E-4
         8058.563     1.152745E-4
         8059.895     1.161300E-4
         8061.227     1.169841E-4
         8062.563     1.178392E-4
         8063.896     1.186899E-4
         8065.238     1.195447E-4
         8066.575     1.203945E-4
         8067.903     1.212373E-4
         8069.241     1.220840E-4
         8070.579     1.229290E-4
         8071.913     1.237694E-4
         8073.255     1.246138E-4
         8074.585     1.254484E-4
         8075.924     1.262867E-4
         8077.263     1.271231E-4
         8078.598     1.279553E-4
         8079.942     1.287911E-4
         8081.277     1.296200E-4
         8082.613     1.304471E-4
         8083.953     1.312750E-4
         8085.293     1.321014E-4
         8086.634     1.329263E-4
          8087.97     1.337467E-4
         8089.311     1.345679E-4
         8090.648     1.353849E-4
         8091.989     1.362028E-4
         8093.331     1.370192E-4
         8094.668     1.378311E-4
         8096.011     1.386442E-4
         8097.353     1.394554E-4
         8098.691     1.402624E-4
         8100.034     1.410703E-4
         8101.377     1.418764E-4
         8102.716     1.426783E-4
          8104.06     1.434814E-4
         8105.398     1.442797E-4
         8106.743     1.450793E-4
         8108.086     1.458769E-4
         8109.431     1.466732E-4
         8110.771     1.474649E-4
         8112.116     1.482577E-4
         8113.457     1.490463E-4
         8114.802     1.498357E-4
         8116.147     1.506236E-4
         8117.488     1.514068E-4
         8118.834     1.521914E-4
         8120.181     1.529741E-4
         8121.522     1.537525E-4
         8122.869     1.545319E-4
         8124.216     1.553095E-4
         8125.559     1.560831E-4
         8126.906     1.568574E-4
         8128.253     1.576301E-4
         8129.597     1.583985E-4
         8130.944     1.591677E-4
         8132.292     1.599354E-4
         8133.636     1.606987E-4
         8134.985     1.614630E-4
          8136.33     1.622233E-4
         8137.679     1.629843E-4
         8139.028     1.637435E-4
         8140.377     1.645011E-4
         8141.723     1.652546E-4
         8143.072     1.660087E-4
         8144.418     1.667588E-4
         8145.769     1.675098E-4
         8147.119     1.682591E-4
         8148.465     1.690041E-4
         8149.816     1.697500E-4
         8151.168     1.704944E-4
         8152.515     1.712344E-4
         8153.867     1.719754E-4
         8155.219     1.727148E-4
         8156.566     1.734499E-4
         8157.918     1.741856E-4
         8159.271     1.749200E-4
          8160.62     1.756500E-4
         8161.973     1.763809E-4
         8163.326     1.771103E-4
         8164.675     1.778355E-4
         8166.029     1.785614E-4
         8167.378     1.792833E-4
         8168.732     1.800057E-4
         8170.087     1.807267E-4
         8171.441     1.814459E-4
         8172.792     1.821613E-4
         8174.147     1.828772E-4
         8175.498     1.835893E-4
         8176.854     1.843019E-4
         8178.209     1.850127E-4
         8179.565     1.857219E-4
         8180.917     1.864274E-4
         8182.273     1.871334E-4
         8183.625     1.878354E-4
         8184.982     1.885381E-4
         8186.339     1.892391E-4
         8187.697     1.899384E-4
          8189.05     1.906338E-4
         8190.408     1.913298E-4
         8191.761     1.920220E-4
         8193.119     1.927146E-4
         8194.478     1.934056E-4
         8195.827     1.940904E-4
         8197.191     1.947809E-4
          8198.55     1.954666E-4
         8199.905     1.961491E-4
         8201.265     1.968319E-4
          8202.62     1.975108E-4
         8203.979     1.981900E-4
          8205.34     1.988679E-4
         8206.701     1.995446E-4
         8208.057     2.002165E-4
         8209.413     2.008871E-4
         8210.779     2.015609E-4
         8212.136     2.022281E-4
         8213.497     2.028959E-4
         8214.859     2.035625E-4
         8216.213     2.042229E-4
         8217.575     2.048860E-4
         8218.941     2.055490E-4
           8220.3     2.062066E-4
         8221.663     2.068649E-4
         8223.018     2.075171E-4
         8224.381     2.081719E-4
         8225.749     2.088272E-4
         8227.112     2.094783E-4
         8228.472     2.101259E-4
         8229.832     2.107721E-4
         8231.196     2.114186E-4
         8232.562     2.120637E-4
         8233.927     2.127071E-4
         8235.292     2.133488E-4
         8236.647     2.139841E-4
         8238.014     2.146227E-4
          8239.38     2.152594E-4
         8240.746     2.158946E-4
         8242.112     2.165279E-4
          8243.47     2.171555E-4
         8244.836     2.177853E-4
         8246.203     2.184139E-4
          8247.57     2.190407E-4
         8248.938     2.196662E-4
         8250.297     2.202855E-4
         8251.665     2.209076E-4
         8253.037     2.215297E-4
         8254.401     2.221465E-4
          8255.77     2.227633E-4
         8257.135     2.233770E-4
         8258.499     2.239887E-4
         8259.873     2.246028E-4
         8261.242     2.252132E-4
         8262.607     2.258201E-4
         8263.973     2.264252E-4
         8265.343     2.270308E-4
         8266.718     2.276367E-4
         8268.084     2.282370E-4
          8269.45     2.288357E-4
         8270.817     2.294330E-4
         8272.188     2.300305E-4
         8273.564     2.306282E-4
         8274.932     2.312204E-4
           8276.3     2.318113E-4
         8277.672     2.324021E-4
         8279.044     2.329912E-4
         8280.417     2.335790E-4
          8281.79     2.341651E-4
         8283.153     2.347453E-4
         8284.527     2.353284E-4
           8285.9     2.359093E-4
         8287.274     2.364890E-4
         8288.648     2.370668E-4
         8290.014     2.376392E-4
         8291.389     2.382141E-4
         8292.764     2.387873E-4
         8294.139     2.393587E-4
         8295.514     2.399284E-4
         8296.885     2.404948E-4
         8298.256     2.410594E-4
         8299.631     2.416239E-4
         8301.012     2.421892E-4
         8302.384     2.427492E-4
         8303.756     2.433075E-4
         8305.133     2.438659E-4
         8306.505     2.444208E-4
         8307.887     2.449778E-4
         8309.265     2.455316E-4
         8310.638     2.700018E-4
         8312.011     3.219699E-4
         8313.389     3.740059E-4
         8314.768     4.259619E-4
         8316.146     4.778010E-4
         8317.521     5.293401E-4
         8318.895     5.807632E-4
         8320.274     6.328251E-4
         8321.658     6.870792E-4
         8323.029     7.407136E-4
         8324.409     7.945697E-4
         8325.789     8.483031E-4
         8327.165     9.017624E-4
         8328.551     9.554781E-4
         8329.927     0.001008693
         8331.304     0.001077457
         8332.685     0.001147138
         8334.066     0.001216709
         8335.443     0.001285875
         8336.825     0.001355127
         8338.203     0.001424025
         8339.586     0.001493007
         8340.969     0.001564929
         8342.352     0.001638008
          8343.73     0.001710713
         8345.113     0.001783453
         8346.493     0.001855872
         8347.877     0.001928326
         8349.261     0.002000612
         8350.646     0.002081952
         8352.025     0.002173369
         8353.405     0.002264704
          8354.79      0.00235628
         8356.176     0.002447837
         8357.562     0.002539312
         8358.942     0.002630382
         8360.328      0.00272256
         8361.715     0.002817521
         8363.097     0.002912061
         8364.483     0.003006849
          8365.87     0.003101549
         8367.252     0.003195829
          8368.64     0.003290421
         8370.022     0.003385008
          8371.41     0.003505032
         8372.799      0.00362503
         8374.187     0.003744831
          8375.57     0.003864184
         8376.959     0.003983846
         8378.344     0.004103061
         8379.732       0.0042225
         8381.122     0.004338294
         8382.512     0.004453117
         8383.897      0.00456751
         8385.287     0.004682116
         8386.673     0.004796289
         8388.063     0.004910756
         8389.454     0.005025112
         8390.841     0.005159023
         8392.231     0.005306185
         8393.623      0.00545331
         8395.011     0.005599882
         8396.402     0.005746725
         8397.795     0.005893528
         8399.188     0.006040189
         8400.575     0.006184368
         8401.963     0.006325831
         8403.356     0.006467752
          8404.75     0.006609533
         8406.144     0.006751174
         8407.532     0.006892181
         8408.927     0.007033641
         8410.316     0.007178844
         8411.711     0.007339309
         8413.105     0.007499614
           8414.5     0.007659759
         8415.891     0.007819297
         8417.286     0.007979231
         8418.677     0.008138451
         8420.073     0.008298531
         8421.469     0.008464733
          8422.86     0.008630306
         8424.258     0.008796403
         8425.654     0.008962217
         8427.047     0.009127395
         8428.443     0.009292871
         8429.841     0.009458291
         8431.239      0.00963677
         8432.632     0.009815996
          8434.03     0.009995791
         8435.424      0.01017477
         8436.823      0.01035432
         8438.222      0.01053356
         8439.616       0.0107121
         8441.016       0.0108912
          8442.41      0.01106953
         8443.811      0.01124842
          8445.21      0.01142699
          8446.61      0.01160551
         8448.007      0.01178333
         8449.407      0.01196146
         8450.804      0.01215164
         8452.205       0.0123517
         8453.606      0.01255156
         8455.008      0.01275119
         8456.405      0.01295006
         8457.803      0.01314871
         8459.205      0.01334784
         8460.607      0.01354137
          8462.01      0.01372762
         8463.404      0.01391264
         8464.808      0.01409862
         8466.216      0.01428504
         8467.614      0.01446996
         8469.019      0.01465545
         8470.418      0.01484613
         8471.817      0.01505074
         8473.228      0.01525669
         8474.627      0.01546084
         8476.032      0.01566562
         8477.434      0.01586961
         8478.839      0.01607393
         8480.245      0.01627625
          8481.65       0.0164691
         8483.057      0.01666188
         8484.454      0.01685323
         8485.861      0.01704569
         8487.272      0.01723847
         8488.676      0.01742996
         8490.083      0.01762273
         8491.485      0.01782991
         8492.889        0.018037
         8494.302      0.01824529
          8495.71      0.01845262
         8497.114      0.01865914
         8498.519      0.01886541
         8499.928      0.01907216
         8501.337      0.01926119
         8502.746      0.01944903
         8504.156      0.01963676
         8505.557      0.01982294
         8506.967      0.02001018
         8508.378      0.02019732
         8509.788      0.02038407
         8511.199      0.02058631
         8512.602      0.02078978
         8514.013      0.02099426
         8515.429      0.02119918
         8516.836      0.02140254
         8518.244       0.0216058
         8519.651      0.02180863
         8521.064      0.02199687
         8522.481      0.02218041
          8523.89      0.02236256
         8525.299      0.02254459
         8526.712      0.02272688
         8528.126      0.02290904
          8529.54      0.02309096
         8530.954      0.02327776
         8532.364      0.02346627
         8533.774      0.02365452
         8535.188      0.02384302
         8536.608      0.02403205
          8538.02      0.02421965
         8539.431      0.02440698
         8540.842      0.02458189
         8542.258      0.02474892
         8543.679      0.02491628
         8545.091      0.02508236
         8546.503      0.02524822
          8547.92       0.0254144
         8549.337      0.02558034
         8550.755      0.02575191
         8552.173      0.02592827
         8553.581      0.02610318
         8554.999      0.02627903
         8556.418      0.02645476
         8557.837      0.02663023
         8559.256      0.02680543
          8560.67      0.02697121
         8562.085      0.02712733
         8563.504      0.02728366
         8564.924      0.02743985
         8566.345      0.02759591
          8567.76      0.02775109
         8569.176      0.02790615
         8570.597       0.0280615
         8572.022      0.02821715
         8573.438       0.0283715
         8574.855      0.02852571
         8576.277      0.02868022
         8577.694      0.02883396
         8579.122      0.02898861
         8580.539      0.02913303
         8581.957      0.02926294
         8583.381      0.02939317
         8584.804      0.02952311
         8586.231      0.02965327
         8587.646      0.02978198
         8589.069      0.02991136
         8590.494      0.03004421
         8591.913      0.03018304
         8593.343      0.03032268
         8594.758      0.03046067
         8596.184      0.03059948
         8597.608      0.03073796
         8599.034      0.03087631
          8600.46      0.03100839
         8601.876      0.03112675
         8603.303      0.03124581
         8604.729      0.03136465
         8606.156      0.03148329
         8607.583      0.03160173
         8609.005      0.03171955
         8610.428      0.03183927
         8611.855      0.03196392
         8613.283      0.03208835
         8614.712      0.03221265
         8616.136       0.0323363
         8617.563      0.03246008
         8618.988      0.03258338
         8620.417      0.03270231
         8621.847      0.03281023
         8623.276      0.03291795
         8624.701       0.0330251
         8626.126      0.03313204
         8627.557      0.03323923
         8628.992      0.03334657
         8630.418      0.03345347
         8631.849      0.03356166
         8633.275      0.03366936
         8634.702      0.03377685
         8636.134      0.03388449
         8637.565      0.03399194
         8638.998      0.03409925
         8640.426      0.03419894
         8641.858      0.03428217
         8643.291      0.03436521
         8644.719      0.03444781
         8646.152      0.03453056
         8647.586      0.03461314
         8649.016      0.03469532
         8650.449      0.03478082
         8651.879      0.03487306
         8653.313       0.0349654
         8654.748      0.03505756
         8656.183      0.03514951
         8657.618      0.03524132
         8659.044      0.03533233
         8660.479      0.03541778
         8661.916      0.03549118
         8663.353      0.03556441
         8664.788      0.03563743
         8666.221      0.03571012
         8667.652      0.03578258
          8669.09      0.03585517
         8670.527      0.03592754
         8671.965      0.03599964
         8673.397      0.03607133
         8674.836      0.03614314
          8676.27      0.03621453
         8677.708      0.03628599
         8679.146      0.03635726
         8680.586      0.03642682
         8682.021      0.03649364
         8683.455      0.03656029
         8684.895      0.03662699
         8686.335      0.03669358
         8687.775      0.03675998
         8689.216      0.03682623
         8690.646      0.03688884
         8692.088       0.0369481
         8693.529      0.03700718
         8694.971      0.03706611
         8696.412      0.03712487
         8697.845      0.03718312
         8699.291      0.03724176
         8700.733      0.03729935
