#  Table wf3f160bwsys.tab  Mon 12:22:11 02-Jun-97

#      WAVELENGTH      THROUGHPUT
#       angstroms                

            1216.     3.699540E-4
          1217.34     3.767027E-4
         1218.682     3.835400E-4
         1220.026     3.904519E-4
         1221.371     3.962674E-4
         1222.717     4.021482E-4
         1224.065     4.081019E-4
         1225.414     4.141249E-4
         1226.765     4.202188E-4
         1228.117     4.263840E-4
         1229.471     4.326208E-4
         1230.826     4.382503E-4
         1232.183     4.435052E-4
         1233.542     4.488143E-4
         1234.901     4.541708E-4
         1236.262     4.595821E-4
         1237.625     4.650442E-4
         1238.989     4.705625E-4
         1240.355     4.758992E-4
         1241.722     4.805967E-4
         1243.091     4.853351E-4
         1244.461     4.901120E-4
         1245.833     4.949257E-4
         1247.207     4.997832E-4
         1248.582     5.046785E-4
         1249.957     5.096107E-4
         1251.335     5.139050E-4
         1252.715     5.182070E-4
         1254.095     5.225362E-4
         1255.478     5.268989E-4
         1256.862     5.312894E-4
         1258.247     5.357072E-4
         1259.634     5.401572E-4
         1261.023     5.441988E-4
         1262.413     5.481060E-4
         1263.805     5.520351E-4
         1265.198     5.559856E-4
         1266.592     5.599563E-4
         1267.989     5.639513E-4
         1269.387     5.679700E-4
         1270.786     5.717174E-4
         1272.187     5.752573E-4
         1273.588     5.788109E-4
         1274.992     5.823820E-4
         1276.399     5.859702E-4
         1277.805     5.895709E-4
         1279.214     5.931885E-4
         1280.624     5.966391E-4
         1282.035     5.998690E-4
         1283.449     6.031129E-4
         1284.864     6.063660E-4
          1286.28     6.096278E-4
         1287.698     6.129025E-4
         1289.117     6.161876E-4
         1290.538     6.193674E-4
         1291.961     6.223651E-4
         1293.385     6.253697E-4
         1294.811     6.283805E-4
         1296.238     6.313996E-4
         1297.668     6.344276E-4
         1299.098     6.374601E-4
          1300.53     6.401029E-4
         1301.963     6.420706E-4
         1303.398     6.440398E-4
         1304.835     6.460121E-4
         1306.274     6.479875E-4
         1307.713     6.499633E-4
         1309.155     6.519424E-4
         1310.597     6.538571E-4
         1312.042     6.556812E-4
         1313.489     6.575063E-4
         1314.937     6.593329E-4
         1316.386     6.611587E-4
         1317.837     6.629861E-4
          1319.29     6.648136E-4
         1320.744     6.665774E-4
           1322.2     6.682791E-4
         1323.657     6.699803E-4
         1325.117     6.716814E-4
         1326.578     6.733820E-4
         1328.039     6.750814E-4
         1329.503     6.767812E-4
         1330.969     6.784035E-4
         1332.436     6.799847E-4
         1333.905     6.815649E-4
         1335.376     6.831435E-4
         1336.847     6.847196E-4
         1338.321     6.862950E-4
         1339.796     6.878689E-4
         1341.273     6.893729E-4
         1342.752     6.908640E-4
         1344.232     6.923527E-4
         1345.713     6.938382E-4
         1347.197     6.953221E-4
         1348.682     6.968037E-4
         1350.169     6.982759E-4
         1351.657     6.996920E-4
         1353.146     7.011045E-4
         1354.638     7.024514E-4
         1356.131     7.037110E-4
         1357.627     7.049679E-4
         1359.123     7.062203E-4
         1360.621     7.074559E-4
         1362.121     7.086683E-4
         1363.622     7.098763E-4
         1365.126     7.110819E-4
          1366.63     7.122825E-4
         1368.137     7.134800E-4
         1369.645     7.146737E-4
         1371.155     7.158626E-4
         1372.667     7.170486E-4
          1374.18     7.182301E-4
         1375.694     7.194072E-4
         1377.211     7.205808E-4
         1378.729     7.217504E-4
         1380.249     7.229194E-4
         1381.771     7.241013E-4
         1383.294     7.252794E-4
         1384.818     7.264528E-4
         1386.345     7.276227E-4
         1387.874     7.287894E-4
         1389.403     7.299506E-4
         1390.935     7.311421E-4
         1392.468     7.323512E-4
         1394.002     7.335560E-4
          1395.54     7.347582E-4
         1397.078     7.359561E-4
         1398.618     7.371496E-4
          1400.16     7.381818E-4
         1401.703     7.378416E-4
         1403.248     7.374970E-4
         1404.795     7.371479E-4
         1406.343     7.367946E-4
         1407.894     7.364370E-4
         1409.446     7.360748E-4
         1410.999     7.357319E-4
         1412.555     7.353976E-4
         1414.112     7.350589E-4
          1415.67     7.347163E-4
         1417.231     7.343693E-4
         1418.793     7.340181E-4
         1420.357     7.336591E-4
         1421.923     7.332840E-4
         1423.491     7.329046E-4
         1425.059     7.325212E-4
          1426.63     7.321333E-4
         1428.203     7.317412E-4
         1429.777     7.313449E-4
         1431.354     7.308972E-4
         1432.932     7.304375E-4
          1434.51     7.299736E-4
         1436.092     7.295050E-4
         1437.676     7.290318E-4
          1439.26     7.285548E-4
         1440.847     7.280149E-4
         1442.435     7.274194E-4
         1444.024     7.268197E-4
         1445.617     7.262150E-4
          1447.21     7.256060E-4
         1448.805     7.249922E-4
         1450.402     7.243332E-4
         1452.001     7.235488E-4
         1453.602     7.227588E-4
         1455.205     7.219641E-4
         1456.808     7.211651E-4
         1458.414     7.203607E-4
         1460.022     7.195486E-4
         1461.631     7.185332E-4
         1463.243     7.175127E-4
         1464.856     7.164869E-4
          1466.47     7.154564E-4
         1468.086     7.144200E-4
         1469.706     7.133778E-4
         1471.325     7.121218E-4
         1472.947     7.108132E-4
         1474.571     7.094987E-4
         1476.196     7.081790E-4
         1477.824     7.068526E-4
         1479.453     7.055214E-4
         1481.083     7.039874E-4
         1482.716     7.023469E-4
          1484.35     7.007006E-4
         1485.987     6.990482E-4
         1487.625     6.979273E-4
         1489.264     6.976654E-4
         1490.906     6.971975E-4
         1492.549     6.965581E-4
         1494.195     6.959013E-4
         1495.842     6.952269E-4
         1497.491     6.945350E-4
         1499.142     6.938257E-4
         1500.794     6.920689E-4
         1502.449     6.891777E-4
         1504.105     6.862715E-4
         1505.763     6.833465E-4
         1507.423     6.804040E-4
         1509.084     6.774460E-4
         1510.748     6.743483E-4
         1512.414     6.710895E-4
          1514.08     6.678154E-4
         1515.749     6.645237E-4
         1517.419     6.612172E-4
         1519.093     6.578913E-4
         1520.768     6.544796E-4
         1522.444     6.509679E-4
         1524.122     6.474425E-4
         1525.802     6.439005E-4
         1527.484     6.403438E-4
         1529.168     6.367722E-4
         1530.854     6.331519E-4
          1532.54     6.294855E-4
          1534.23     6.258038E-4
         1535.921     6.221083E-4
         1537.615     6.183978E-4
          1539.31     6.146776E-4
         1541.006     6.109592E-4
         1542.705     6.072390E-4
         1544.405     6.035086E-4
         1546.109     5.988001E-4
         1547.812     5.935903E-4
         1549.518     5.883930E-4
         1551.227     5.832884E-4
         1552.936     5.782318E-4
         1554.648     5.731875E-4
         1556.363     5.681552E-4
         1558.078     5.631422E-4
         1559.795     5.581423E-4
         1561.515     5.533253E-4
         1563.235     5.485477E-4
         1564.958     5.437817E-4
         1566.685     5.390272E-4
         1568.411     5.342911E-4
          1570.14     5.295870E-4
         1571.871     5.251255E-4
         1573.603     5.206790E-4
         1575.338     5.162429E-4
         1577.075     5.118171E-4
         1578.813     5.074085E-4
         1580.553     5.031130E-4
         1582.295     4.990509E-4
         1584.039     4.949975E-4
         1585.785     4.909553E-4
         1587.534     4.869240E-4
         1589.284     4.829038E-4
         1591.036     4.791137E-4
          1592.79     4.754846E-4
         1594.545     4.718665E-4
         1596.303     4.682555E-4
         1598.062     4.646537E-4
         1599.824     4.610608E-4
         1601.588     4.570977E-4
         1603.353     4.531077E-4
          1605.12     4.491292E-4
          1606.89     4.451639E-4
         1608.661     4.412121E-4
         1610.434     4.373778E-4
          1612.21     4.338750E-4
         1613.986     4.303834E-4
         1615.765     4.269001E-4
         1617.548     4.234245E-4
          1619.33     4.199624E-4
         1621.115     4.167726E-4
         1622.902     4.137482E-4
          1624.69     4.107315E-4
         1626.482     4.077180E-4
         1628.275     4.047135E-4
         1630.069     4.017304E-4
         1631.867     3.991561E-4
         1633.665     3.965860E-4
         1635.466     3.940158E-4
         1637.269     3.914494E-4
         1639.074     3.888859E-4
          1640.88     3.865330E-4
         1642.689     3.843967E-4
           1644.5     3.822597E-4
         1646.313     3.801220E-4
         1648.128     3.780062E-4
         1649.944     3.761892E-4
         1651.763     3.747769E-4
         1653.585     3.733697E-4
         1655.407     3.719567E-4
         1657.232     3.705357E-4
         1659.058     3.691082E-4
         1660.888     3.678571E-4
         1662.719     3.667946E-4
         1664.552     3.657225E-4
         1666.386     3.646415E-4
         1668.223     3.635504E-4
         1670.062     3.624610E-4
         1671.903     3.616821E-4
         1673.746     3.608920E-4
          1675.59     3.600907E-4
         1677.437     3.592777E-4
         1679.287     3.584530E-4
         1681.139     3.577919E-4
         1682.991     3.572284E-4
         1684.847     3.566518E-4
         1686.704     3.560617E-4
         1688.563     3.554586E-4
         1690.425     3.548964E-4
         1692.287     3.545062E-4
         1694.153     3.541011E-4
         1696.021     3.536810E-4
          1697.89     3.532461E-4
         1699.762     3.527956E-4
         1701.636     3.529228E-4
         1703.512     3.531252E-4
         1705.389     3.533166E-4
         1707.269     3.534971E-4
         1709.151     3.536666E-4
         1711.035     3.539197E-4
         1712.922     3.542392E-4
         1714.809     3.545468E-4
         1716.699     3.548427E-4
         1718.592     3.551265E-4
         1720.485     3.554326E-4
         1722.383     3.558272E-4
         1724.281     3.562086E-4
         1726.182     3.565773E-4
         1728.086     3.569333E-4
          1729.99     3.572760E-4
         1731.897     3.577153E-4
         1733.806     3.581416E-4
         1735.718     3.585540E-4
          1737.63     3.589524E-4
         1739.546     3.593367E-4
         1741.463     3.597696E-4
         1743.383     3.602075E-4
         1745.305     3.606305E-4
         1747.228     3.610383E-4
         1749.154     3.614311E-4
         1751.084     3.614922E-4
         1753.013     3.612909E-4
         1754.946     3.610737E-4
          1756.88     3.608405E-4
         1758.817     3.605914E-4
         1760.756     3.603441E-4
         1762.697     3.601087E-4
         1764.639     3.598566E-4
         1766.585     3.595877E-4
         1768.532     3.593017E-4
         1770.482     3.590099E-4
         1772.434     3.587342E-4
         1774.387     3.584409E-4
         1776.343     3.581299E-4
         1778.301     3.578009E-4
         1780.262     3.574591E-4
         1782.224     3.571345E-4
         1784.189     3.567911E-4
         1786.156     3.564289E-4
         1788.124     3.560480E-4
         1790.096     3.556498E-4
         1792.068     3.552735E-4
         1794.044     3.548772E-4
         1796.022     3.544612E-4
         1798.001     3.540255E-4
         1799.984     3.535692E-4
         1801.968     3.515685E-4
         1803.954     3.495161E-4
         1805.942     3.474250E-4
         1807.933     3.452932E-4
         1809.926     3.431212E-4
         1811.922     3.409446E-4
         1813.919     3.387280E-4
         1815.918     3.364710E-4
          1817.92     3.341706E-4
         1819.925     3.318269E-4
          1821.93     3.294749E-4
         1823.938     3.270797E-4
         1825.948     3.246416E-4
         1827.962     3.221570E-4
         1829.976     3.196303E-4
         1831.995     3.170880E-4
         1834.013     3.145029E-4
         1836.035     3.118702E-4
         1838.059     3.091911E-4
         1840.084     3.064677E-4
         1842.113     3.037231E-4
         1844.144     3.009303E-4
         1846.177     2.980890E-4
         1848.212     2.951988E-4
         1850.248     2.922641E-4
         1852.288     2.893025E-4
          1854.33     2.862902E-4
         1856.375     2.832252E-4
         1858.421     2.801120E-4
         1860.469     2.769516E-4
          1862.52     2.737606E-4
         1864.573     2.705149E-4
         1866.628     2.672155E-4
         1868.686     2.638620E-4
         1870.746     2.604625E-4
         1872.808     2.570223E-4
         1874.872     2.535279E-4
         1876.939     2.499754E-4
         1879.008     2.463655E-4
         1881.079     2.424989E-4
         1883.153     2.385908E-4
         1885.229     2.346302E-4
         1887.307     2.306190E-4
         1889.387     2.265529E-4
         1891.471     2.224446E-4
         1893.555     2.182917E-4
         1895.643     2.140821E-4
         1897.732     2.098179E-4
         1899.823     2.055007E-4
         1901.919     2.036239E-4
         1904.014     2.019511E-4
         1906.113     2.002504E-4
         1908.215     1.985227E-4
         1910.317     1.967710E-4
         1912.424     1.950039E-4
         1914.532     1.932104E-4
         1916.643     1.913874E-4
         1918.755     1.895378E-4
          1920.87     1.876644E-4
         1922.988     1.857697E-4
         1925.107     1.838470E-4
          1927.23     1.818934E-4
         1929.354     1.799125E-4
         1931.481     1.779106E-4
          1933.61     1.758830E-4
          1935.74     1.738265E-4
         1937.875     1.717376E-4
         1940.011     1.696206E-4
         1942.149     1.674811E-4
          1944.29     1.653106E-4
         1946.434     1.631090E-4
          1948.58     1.608762E-4
         1950.728     1.586158E-4
         1952.878     1.563312E-4
          1955.03     1.540155E-4
         1957.185     1.516665E-4
         1959.343     1.492851E-4
         1961.503     1.468751E-4
         1963.665     1.444341E-4
         1965.829     1.419612E-4
         1967.996     1.394539E-4
         1970.167     1.369125E-4
         1972.339     1.343459E-4
         1974.512     1.317466E-4
         1976.689     1.291116E-4
         1978.868     1.264426E-4
         1981.049     1.237410E-4
         1983.233     1.210068E-4
         1985.418     1.182391E-4
         1987.607     1.154346E-4
         1989.798     1.125949E-4
         1991.992     1.093129E-4
         1994.188     1.059489E-4
         1996.386     1.025441E-4
         1998.586     9.909998E-5
         2000.789     9.625700E-5
         2002.996     9.453699E-5
         2005.203     9.279246E-5
         2007.414     9.102060E-5
         2009.627     8.922211E-5
         2011.841     8.681884E-5
          2014.06     8.426057E-5
         2016.279     8.166899E-5
         2018.502     7.903980E-5
         2020.727     7.645197E-5
         2022.955     7.398993E-5
         2025.185     7.149397E-5
         2027.417     6.896376E-5
         2029.652     6.639933E-5
         2031.889     6.421838E-5
         2034.129     6.208404E-5
         2036.371     5.992056E-5
         2038.616     5.772807E-5
         2040.864     5.570081E-5
         2043.112     5.396098E-5
         2045.365     5.219690E-5
         2047.621     5.040825E-5
         2049.877     4.859775E-5
         2052.137     4.750424E-5
         2054.399     4.643886E-5
         2056.664     4.535880E-5
         2058.931     4.426387E-5
         2061.201     4.272550E-5
         2063.472     4.078421E-5
         2065.747     3.881781E-5
         2068.024     3.682677E-5
         2070.304     3.484760E-5
         2072.586     3.308274E-5
         2074.871     3.129663E-5
         2077.157     2.948953E-5
         2079.447     2.765995E-5
          2081.74     2.645412E-5
         2084.034     2.544135E-5
         2086.332     2.441591E-5
         2088.632     2.337804E-5
         2090.933     2.209099E-5
          2093.24     2.043708E-5
         2095.546     1.876632E-5
         2097.856     1.707593E-5
         2100.169     1.540997E-5
         2102.483     1.428164E-5
         2104.802     1.313963E-5
         2107.121     1.198640E-5
         2109.444     1.081993E-5
         2111.769     9.767906E-6
         2114.097     8.744861E-6
         2116.428     7.711142E-6
          2118.76     6.667131E-6
         2121.097     5.875037E-6
         2123.434     5.375228E-6
         2125.775     4.870116E-6
         2128.118     4.359883E-6
         2130.463     3.886989E-6
         2132.813     3.581339E-6
         2135.163     3.273018E-6
         2137.518     2.961401E-6
         2139.875     2.647668E-6
         2142.231     2.448790E-6
         2144.594     2.254279E-6
         2146.958     2.057920E-6
         2149.325     1.859624E-6
         2151.693     1.712803E-6
         2154.065     1.585905E-6
          2156.44     1.457814E-6
         2158.817     1.328508E-6
         2161.197     1.221273E-6
         2163.578     1.136261E-6
         2165.964     1.050433E-6
         2168.353     9.638007E-7
         2170.743     8.856219E-7
         2173.135     8.272592E-7
         2175.529     7.684079E-7
         2177.929     7.090052E-7
         2180.329     6.518216E-7
         2182.733     6.108908E-7
         2185.138     5.696848E-7
         2187.547     5.281389E-7
         2189.959     4.862728E-7
         2192.372     4.568689E-7
         2194.789     4.274665E-7
         2197.208     3.978537E-7
         2199.632     3.680202E-7
         2202.056     3.476223E-7
         2204.482     3.285236E-7
         2206.912     3.089679E-7
         2209.345     2.889616E-7
         2211.782     2.731728E-7
         2214.219     2.587821E-7
          2216.66     2.440602E-7
         2219.104     2.290120E-7
         2221.549     2.165804E-7
         2223.998     2.055932E-7
         2226.449     1.943685E-7
         2228.904     1.829033E-7
         2231.361     1.730887E-7
          2233.82     1.646103E-7
         2236.284     1.559473E-7
         2238.748     1.471157E-7
         2241.217     1.393498E-7
         2243.687     1.327370E-7
         2246.159     1.259924E-7
         2248.636     1.191082E-7
         2251.114     1.129555E-7
         2253.597     1.077412E-7
          2256.08     1.024324E-7
         2258.567     9.702068E-8
         2261.057     9.212586E-8
         2263.548     8.798924E-8
         2266.045     8.377189E-8
         2268.542     7.948207E-8
         2271.042     7.557909E-8
         2273.546     7.226514E-8
         2276.051     6.889414E-8
         2278.562     6.546075E-8
         2281.072     6.234239E-8
         2283.588     5.967036E-8
         2286.104     5.695509E-8
         2288.623     5.419353E-8
         2291.147     5.169223E-8
         2293.672     4.952529E-8
         2296.202     4.732173E-8
         2298.732     4.510078E-8
         2301.266     4.310893E-8
         2303.803     4.135424E-8
         2306.342     3.957006E-8
         2308.885     3.775382E-8
         2311.431     3.614769E-8
