#  Table wf3f791wsys.tab  Mon 12:22:24 02-Jun-97

#      WAVELENGTH      THROUGHPUT
#       angstroms                

            1850.     2.391258E-7
         1851.651     2.062174E-7
         1853.301     1.730049E-7
         1854.956     1.393902E-7
         1856.611     1.054804E-7
         1858.267     7.122647E-8
         1859.925     3.660621E-8
         1861.584     5.320657E-8
         1863.246     7.242802E-8
         1864.909     9.184225E-8
         1866.572     1.114359E-7
         1868.237     1.312242E-7
         1869.904     1.512185E-7
         1871.573     2.204645E-7
         1873.242     2.933733E-7
         1874.913     3.670055E-7
         1876.585     4.413704E-7
          1878.26     5.165270E-7
         1879.937     5.921861E-7
         1881.613     6.585087E-7
         1883.292     7.250142E-7
         1884.973     7.921212E-7
         1886.654     8.597537E-7
         1888.338     9.279976E-7
         1890.023     9.971455E-7
         1891.709     1.091212E-6
         1893.396     1.186082E-6
         1895.086     1.281809E-6
         1896.775     1.378222E-6
         1898.469     1.475622E-6
         1900.163     1.553067E-6
         1901.857     1.436315E-6
         1903.555     1.318337E-6
         1905.254     1.199272E-6
         1906.953     1.079203E-6
         1908.655     9.579687E-7
         1910.357     8.355253E-7
         1912.061     7.112498E-7
         1913.768     5.857800E-7
         1915.476     4.591736E-7
         1917.184     3.315090E-7
         1918.894     2.027008E-7
         1920.606     1.119982E-7
          1922.32     9.247344E-8
         1924.035     7.277278E-8
         1925.752     5.290552E-8
          1927.47     3.284985E-8
         1929.189     1.262651E-8
          1930.91     1.705991E-8
         1932.634     4.377635E-8
         1934.358     7.072890E-8
         1936.084     9.790104E-8
         1937.811     1.253145E-7
          1939.54     1.529840E-7
          1941.27     1.903707E-7
         1943.003     2.315648E-7
         1944.737     2.731202E-7
          1946.47     3.149849E-7
         1948.207     3.572636E-7
         1949.947     3.999314E-7
         1951.685     3.430220E-7
         1953.427     2.823695E-7
         1955.171     2.211714E-7
         1956.913     1.594996E-7
          1958.66     9.720100E-8
         1960.408     5.056299E-8
         1962.157     5.703241E-8
         1963.908     6.356186E-8
         1965.658     7.013925E-8
         1967.413     7.678076E-8
         1969.169     8.347934E-8
         1970.925     8.344907E-8
         1972.684     7.728868E-8
         1974.444     7.107529E-8
         1976.205     6.480487E-8
         1977.969     5.846974E-8
         1979.734     5.208458E-8
           1981.5     4.414590E-8
         1983.268     3.586372E-8
         1985.037     2.751211E-8
         1986.809     1.908159E-8
         1988.581     1.058179E-8
         1990.355     4.331167E-9
         1992.131     7.368882E-9
         1993.908     1.043304E-8
         1995.688     1.352756E-8
         1997.467     1.664297E-8
          1999.25     1.978895E-8
         2001.034     2.403037E-8
         2002.818     2.908610E-8
         2004.606     3.420142E-8
         2006.396     3.936444E-8
         2008.184     4.457143E-8
         2009.976     4.983578E-8
         2011.769     4.790785E-8
         2013.565     4.586038E-8
         2015.362     4.379068E-8
         2017.158     4.170137E-8
         2018.958     3.958721E-8
          2020.76     3.655756E-8
         2022.563     3.226929E-8
         2024.368     2.793440E-8
         2026.173     2.355854E-8
         2027.982     1.913556E-8
         2029.791     1.467091E-8
         2031.602     1.244357E-8
         2033.414     1.049507E-8
         2035.228     8.527093E-9
         2037.044     6.538319E-9
         2038.861     4.531060E-9
         2040.681     3.437833E-9
         2042.502     3.905804E-9
         2044.324     4.377948E-9
         2046.147     4.854507E-9
         2047.974     5.335855E-9
           2049.8     5.821406E-9
          2051.63     6.776884E-9
         2053.461     7.798674E-9
         2055.291     8.828827E-9
         2057.125     9.869732E-9
         2058.961     1.092034E-8
         2060.798     1.107657E-8
         2062.637     1.005122E-8
         2064.477     9.016592E-9
         2066.318     7.972098E-9
         2068.164     6.916285E-9
         2070.007     5.860839E-9
         2071.855     7.016217E-9
         2073.704     8.181960E-9
         2075.553     9.357494E-9
         2077.405     1.054348E-8
         2079.259     1.174107E-8
         2081.113     2.383306E-8
         2082.971     4.332969E-8
         2084.829     6.298856E-8
         2086.688     8.282068E-8
          2088.55     1.028426E-7
         2090.414     1.173066E-7
         2092.279     1.117319E-7
         2094.145     1.061069E-7
         2096.014     1.004254E-7
         2097.885     9.469233E-8
         2099.756     8.891045E-8
          2101.63     7.611162E-8
         2103.503     6.217027E-8
         2105.381     4.809363E-8
          2107.26     3.389382E-8
         2109.139     1.958137E-8
         2111.022     2.026355E-8
         2112.906     3.374797E-8
         2114.789     4.732570E-8
         2116.677     6.103244E-8
         2118.564     7.484218E-8
         2120.455     8.259583E-8
         2122.348     7.084836E-8
         2124.241     5.901516E-8
         2126.135     4.708525E-8
         2128.033     3.505346E-8
         2129.932     2.292395E-8
         2131.832     2.138661E-8
         2133.734     2.023285E-8
         2135.637     1.907008E-8
         2137.544     1.789661E-8
          2139.45     1.671904E-8
         2141.359     1.484982E-8
          2143.27     1.268681E-8
         2145.182     1.050777E-8
         2147.096     8.310384E-9
         2149.011     6.097095E-9
         2150.929     6.317151E-9
         2152.848     9.156926E-9
         2154.768     1.201765E-8
         2156.692     1.490310E-8
         2158.615     1.780420E-8
         2160.541     2.101857E-8
         2162.469     2.499517E-8
         2164.397     2.899425E-8
          2166.33     3.302862E-8
         2168.263     3.708879E-8
         2170.196     4.010374E-8
         2172.133     3.363908E-8
          2174.07     2.713663E-8
         2176.011     2.058639E-8
         2177.953     1.399307E-8
         2179.895     7.361497E-9
          2181.84     1.774867E-8
         2183.787     2.918062E-8
         2185.735     4.067589E-8
         2187.686     5.224627E-8
         2189.637     6.387901E-8
          2191.59     6.233709E-8
         2193.546     5.774740E-8
         2195.503     5.313236E-8
         2197.462     4.849364E-8
         2199.423     4.382535E-8
         2201.385     4.937931E-8
         2203.348     5.933487E-8
         2205.315     6.945760E-8
         2207.283     7.974101E-8
         2209.252     9.017945E-8
         2211.222     8.479974E-8
         2213.196     6.944738E-8
          2215.17     5.385379E-8
         2217.147     3.799448E-8
         2219.125     2.187957E-8
         2221.104     1.382385E-8
         2223.086     1.226688E-8
         2225.071     1.068384E-8
         2227.055     9.078541E-9
         2229.042     7.445935E-9
         2231.031     6.534484E-9
         2233.021     6.307402E-9
         2235.015     6.076152E-9
         2237.008     5.841282E-9
         2239.003     5.602459E-9
         2241.002     6.868144E-9
         2242.999     9.660081E-9
         2245.002     1.249614E-8
         2247.005     1.536826E-8
         2249.009     1.828006E-8
         2251.016     2.032612E-8
         2253.024     2.150769E-8
         2255.033     2.270386E-8
         2257.046     2.391559E-8
         2259.061     2.514207E-8
         2261.075     2.361741E-8
         2263.092     1.963869E-8
         2265.112     1.560345E-8
         2267.134     1.151382E-8
         2269.156     7.372549E-9
         2271.181     5.930683E-9
         2273.207     6.453362E-9
         2275.234     6.982330E-9
         2277.266     7.518266E-9
         2279.296     8.059451E-9
          2281.33     1.007953E-8
         2283.366     1.290769E-8
         2285.402     1.576672E-8
         2287.441     1.866363E-8
         2289.483     2.159482E-8
         2291.525     2.676721E-8
          2293.57     3.275792E-8
         2295.615     3.881091E-8
         2297.663     4.495366E-8
         2299.715     5.117751E-8
         2301.765     5.058850E-8
          2303.82     4.887097E-8
         2305.876     4.712968E-8
         2307.932     4.536557E-8
         2309.992     4.357621E-8
         2312.051     3.680829E-8
         2314.116     2.992541E-8
          2316.18     2.296617E-8
         2318.246     1.592377E-8
         2320.315     1.019706E-8
         2322.385     1.228111E-8
         2324.457     1.439034E-8
         2326.531     1.652213E-8
         2328.606     1.867808E-8
         2330.685     1.924684E-8
         2332.764     1.652100E-8
         2334.845     1.376278E-8
         2336.927     1.097269E-8
         2339.012     8.150247E-9
         2341.101     1.254521E-8
         2343.188     2.352591E-8
         2345.279     3.462963E-8
         2347.372     4.586218E-8
         2349.467     5.721638E-8
         2351.562     5.487968E-8
         2353.661     4.777049E-8
         2355.759     4.059197E-8
         2357.862     3.332461E-8
         2359.966     2.597802E-8
         2362.071     2.242836E-8
         2364.179     1.890241E-8
         2366.288     1.534089E-8
         2368.398     1.174120E-8
         2370.512     9.738729E-9
         2372.628     1.286756E-8
         2374.744     1.602594E-8
         2376.863     1.921801E-8
         2378.983     2.244023E-8
         2381.105     2.222051E-8
          2383.23     1.878297E-8
         2385.357     1.531074E-8
         2387.485     1.180530E-8
         2389.615     8.264922E-9
         2391.747     7.818740E-9
         2393.881     8.062420E-9
         2396.017     8.308340E-9
         2398.154     8.556194E-9
         2400.293     9.052678E-9
         2402.435     1.111430E-8
          2404.58     1.319527E-8
         2406.724     1.529398E-8
         2408.872     1.741316E-8
         2411.022     2.011929E-8
         2413.171     2.347496E-8
         2415.326     2.686687E-8
         2417.479     3.028246E-8
         2419.637     3.373306E-8
         2421.796     3.025606E-8
         2423.957     2.533695E-8
          2426.12     2.037044E-8
         2428.284     1.536251E-8
         2430.451     1.214758E-8
         2432.619     1.594398E-8
         2434.789     1.977262E-8
         2436.962     2.363665E-8
         2439.136     2.753319E-8
         2441.312     3.539128E-8
          2443.49     4.591299E-8
          2445.67     5.652925E-8
         2447.853     6.723569E-8
         2450.036     7.759670E-8
         2452.222     6.276620E-8
         2454.409     4.781010E-8
           2456.6     3.271779E-8
         2458.792     1.750048E-8
         2460.985     1.923567E-8
          2463.18     4.201338E-8
         2465.379     6.499265E-8
         2467.579     8.815649E-8
         2469.778     1.114795E-7
         2471.983     1.030642E-7
          2474.19     9.098261E-8
         2476.396     7.882270E-8
         2478.606     6.654783E-8
         2480.817     5.476516E-8
         2483.029     4.388884E-8
         2485.247     3.290993E-8
         2487.462     2.186323E-8
         2489.682     1.071440E-8
         2491.904     9.544798E-9
         2494.125     1.005326E-8
         2496.353     1.056651E-8
         2498.579     1.108298E-8
         2500.808     1.205129E-8
          2503.04     1.381888E-8
         2505.272     1.559898E-8
         2507.509     1.739416E-8
         2509.745     1.920173E-8
         2511.985     2.371570E-8
         2514.225     2.860902E-8
         2516.468     3.354080E-8
         2518.714     3.851337E-8
         2520.962     3.878625E-8
          2523.21     3.270121E-8
         2525.462     2.656375E-8
         2527.715     2.038169E-8
         2529.971     1.414680E-8
         2532.229     1.466069E-8
         2534.486     1.526735E-8
         2536.748     1.587919E-8
          2539.01     1.646803E-8
         2541.277     1.738953E-8
         2543.545     1.857356E-8
         2545.813     1.976157E-8
         2548.084     2.095421E-8
         2550.358     2.231418E-8
         2552.635     2.454915E-8
         2554.911     2.679129E-8
         2557.191     2.904395E-8
         2559.471     3.130275E-8
         2561.755     4.053976E-8
         2564.042     5.192048E-8
         2566.329     6.334087E-8
         2568.619     7.481293E-8
         2570.908     7.993155E-8
         2573.205     7.532890E-8
           2575.5     7.071285E-8
         2577.797     6.607611E-8
         2580.097     6.113891E-8
         2582.399     4.987559E-8
         2584.704     3.855679E-8
          2587.01     2.719223E-8
         2589.318     1.578570E-8
         2591.629     1.287786E-8
          2593.94     1.354815E-8
         2596.254     1.422097E-8
         2598.573     1.489729E-8
         2600.889     1.513362E-8
          2603.21     1.465958E-8
         2605.532     1.418367E-8
         2607.856     1.370556E-8
         2610.185     1.389685E-8
         2612.512     2.189284E-8
         2614.843     2.993146E-8
         2617.177     3.800422E-8
          2619.51     4.610084E-8
         2621.849     4.338780E-8
         2624.188     3.778419E-8
         2626.528     3.215645E-8
         2628.873     2.650052E-8
         2631.217     2.328671E-8
         2633.566     2.234491E-8
         2635.916     2.139880E-8
         2638.267     2.044890E-8
          2640.62     1.918883E-8
         2642.977     1.706549E-8
         2645.334     1.493400E-8
         2647.695     1.279196E-8
         2650.057     1.073384E-8
         2652.422     1.240491E-8
         2654.788     1.408188E-8
         2657.157     1.576700E-8
         2659.526     1.745711E-8
         2661.899     3.539243E-8
         2664.275     5.746917E-8
         2666.652     7.962743E-8
         2669.031     1.018920E-7
         2671.412     9.692316E-8
         2673.796     7.313366E-8
         2676.181     4.925736E-8
          2678.57     2.526282E-8
          2680.96     2.137860E-8
          2683.35     4.763681E-8
         2685.746     7.405371E-8
          2688.14     1.005347E-7
          2690.54     1.195615E-7
         2692.941     1.124108E-7
         2695.343     1.052314E-7
         2697.748     9.801625E-8
         2700.153     9.037115E-8
         2702.563     7.665514E-8
         2704.975     6.283856E-8
         2707.387     4.892821E-8
         2709.804     3.490551E-8
         2712.222     3.212698E-8
         2714.642     3.033355E-8
         2717.063     2.852666E-8
         2719.486     2.670590E-8
         2721.915     2.702810E-8
         2724.343     2.793254E-8
         2726.772     2.884301E-8
         2729.205     2.975955E-8
          2731.64     3.136145E-8
         2734.078     3.330483E-8
         2736.517     3.526047E-8
         2738.958     3.722938E-8
         2741.402     3.501628E-8
         2743.849     2.965469E-8
         2746.296     2.425763E-8
         2748.747     1.881799E-8
         2751.198     1.886079E-8
         2753.653     2.468212E-8
         2756.111     3.051805E-8
         2758.569     3.636513E-8
         2761.031     3.716486E-8
         2763.495     3.092305E-8
         2765.958     2.467314E-8
         2768.427     1.840020E-8
         2770.898     1.479953E-8
         2773.369     1.590671E-8
         2775.844     1.701726E-8
          2778.32     1.812989E-8
         2780.799     1.957937E-8
          2783.28     2.173716E-8
         2785.764     2.390040E-8
         2788.249     2.606739E-8
         2790.736     2.808089E-8
         2793.227     2.972146E-8
          2795.72     3.136591E-8
         2798.213     3.301330E-8
         2800.709     3.840114E-8
         2803.209     5.323835E-8
         2805.709     6.810171E-8
         2808.213     8.301021E-8
         2810.718     8.813164E-8
         2813.226     6.878683E-8
         2815.736     4.940867E-8
         2818.247     2.998579E-8
         2820.764     2.061008E-8
         2823.278     3.443775E-8
         2825.798     4.831411E-8
          2828.32     6.222177E-8
         2830.843     7.385552E-8
         2833.369     8.093322E-8
         2835.898     8.802732E-8
         2838.426     9.512826E-8
         2840.959     9.118594E-8
         2843.495     6.904453E-8
         2846.031     4.686778E-8
         2848.571     2.462571E-8
         2851.112     1.531669E-8
         2853.655     2.267992E-8
         2856.202     3.006320E-8
         2858.751     3.746236E-8
         2861.301     3.733757E-8
         2863.853     2.996332E-8
         2866.407     2.257275E-8
         2868.965     1.516160E-8
         2871.526     1.438410E-8
         2874.087     1.811776E-8
         2876.652     2.186199E-8
         2879.218     2.561143E-8
         2881.788     2.440382E-8
         2884.358     2.101906E-8
         2886.931     1.762703E-8
         2889.507     1.422609E-8
         2892.084     1.604157E-8
         2894.666     1.909897E-8
         2897.248     2.216104E-8
         2899.832     2.522895E-8
         2902.421     2.221083E-8
          2905.01     1.877858E-8
         2907.601     1.535163E-8
         2910.198     1.223091E-8
          2912.79     1.281283E-8
         2915.392     1.339513E-8
         2917.992     1.397565E-8
         2920.594     1.458125E-8
         2923.203     1.527497E-8
         2925.807     1.596574E-8
          2928.42     1.665686E-8
         2931.033     1.829803E-8
         2933.646     2.138762E-8
         2936.266     2.447706E-8
         2938.885     2.755681E-8
         2941.506     3.099931E-8
         2944.131     3.471019E-8
         2946.757     3.841172E-8
         2949.387     4.210830E-8
         2952.018     3.691314E-8
         2954.653     2.902807E-8
          2957.29     2.115789E-8
         2959.926     1.331215E-8
         2962.567     2.861746E-8
          2965.21     4.455286E-8
         2967.856     6.046433E-8
         2970.505     7.103801E-8
         2973.155     5.908483E-8
         2975.808     4.714754E-8
         2978.461     3.524933E-8
         2981.121     2.765151E-8
          2983.78     2.597226E-8
         2986.441     2.429633E-8
         2989.104     2.262388E-8
         2991.772     2.600868E-8
         2994.442     3.193756E-8
         2997.113     3.785047E-8
         2999.788     4.375433E-8
         3002.464     3.743315E-8
         3005.142     3.007732E-8
         3007.826     2.272796E-8
         3010.507     1.706252E-8
         3013.194     1.850195E-8
         3015.883     1.993808E-8
         3018.573     2.136996E-8
         3021.267     2.195001E-8
          3023.96     2.157279E-8
          3026.66     2.119560E-8
          3029.36     2.081958E-8
         3032.062     3.551571E-8
          3034.77     5.487545E-8
         3037.475     7.415466E-8
         3040.186     9.060096E-8
         3042.897     6.891931E-8
         3045.612     4.728678E-8
         3048.332     2.567852E-8
         3051.051     1.302864E-8
         3053.772     1.450069E-8
         3056.497     1.597008E-8
         3059.222     1.743379E-8
         3061.954     3.611764E-8
         3064.685     6.157519E-8
         3067.418     8.697106E-8
         3070.156     1.098936E-7
         3072.896     9.270366E-8
         3075.637     7.556564E-8
          3078.38     5.847222E-8
         3081.126     4.833974E-8
         3083.877     4.817860E-8
         3086.628     4.801769E-8
         3089.381     4.785684E-8
         3092.137     6.219684E-8
         3094.895     8.069490E-8
         3097.659     9.916602E-8
         3100.422     1.104084E-7
         3103.187     8.181120E-8
         3105.955     5.310182E-8
         3108.729     2.424430E-8
         3111.501     1.822455E-8
