#  Table wf4f555wsys.tab  Mon 12:22:49 02-Jun-97

#      WAVELENGTH      THROUGHPUT
#       angstroms                

            1850.     6.518901E-9
         1851.651     6.113182E-7
         1853.301     1.221429E-6
         1854.956     1.838650E-6
         1856.611     2.461012E-6
         1858.267     3.089408E-6
         1859.925     3.724245E-6
         1861.584     3.857578E-6
         1863.246     3.968124E-6
         1864.909     4.079644E-6
         1866.572     4.192058E-6
         1868.237     4.305454E-6
         1869.904     4.419896E-6
         1871.573     4.421830E-6
         1873.242     4.416694E-6
         1874.913     4.411369E-6
         1876.585     4.405852E-6
          1878.26     4.400139E-6
         1879.937     4.392540E-6
         1881.613     3.910762E-6
         1883.292     3.406068E-6
         1884.973     2.896670E-6
         1886.654     2.383146E-6
         1888.338     1.864847E-6
         1890.023     1.347535E-6
         1891.709     1.221907E-6
         1893.396     1.095158E-6
         1895.086     9.672174E-7
         1896.775     8.383146E-7
         1898.469     7.080438E-7
         1900.163     6.168715E-7
         1901.857     9.024981E-7
         1903.555     1.190939E-6
         1905.254     1.481855E-6
         1906.953     1.775043E-6
         1908.655     2.070889E-6
         1910.357     2.264087E-6
         1912.061     2.061711E-6
         1913.768     1.857409E-6
         1915.476     1.651275E-6
         1917.184     1.443438E-6
         1918.894     1.233760E-6
         1920.606     1.040466E-6
          1922.32     8.787886E-7
         1924.035     7.156868E-7
         1925.752     5.512386E-7
          1927.47     3.852635E-7
         1929.189     2.179340E-7
          1930.91     1.284584E-7
         1932.634     1.091462E-7
         1934.358     8.966359E-8
         1936.084     7.002262E-8
         1937.811     5.020753E-8
          1939.54     3.020785E-8
          1941.27     1.259399E-7
         1943.003     2.647572E-7
         1944.737     4.047763E-7
          1946.47     5.458215E-7
         1948.207     6.882445E-7
         1949.947     8.319619E-7
         1951.685     8.142489E-7
         1953.427     7.912119E-7
         1955.171     7.679538E-7
         1956.913     7.445021E-7
          1958.66     7.207986E-7
         1960.408     7.057254E-7
         1962.157     7.197184E-7
         1963.908     7.338214E-7
         1965.658     7.480083E-7
         1967.413     7.623139E-7
         1969.169     7.767229E-7
         1970.925     7.237069E-7
         1972.684     6.091755E-7
         1974.444     4.937091E-7
         1976.205     3.772336E-7
         1977.969     2.596068E-7
         1979.734     1.411021E-7
           1981.5     1.464984E-7
         1983.268     1.742376E-7
         1985.037     2.021947E-7
         1986.809     2.304014E-7
         1988.581     2.588251E-7
         1990.355     2.978077E-7
         1992.131     3.784083E-7
         1993.908     4.596865E-7
         1995.688     5.417459E-7
         1997.467     6.243351E-7
          1999.25     7.077105E-7
         2001.034     6.682182E-7
         2002.818     5.383478E-7
         2004.606     4.069319E-7
         2006.396     2.742754E-7
         2008.184     1.404750E-7
         2009.976     5.186321E-9
         2011.769     1.279683E-8
         2013.565     2.242720E-8
         2015.362     3.215226E-8
         2017.158     4.195982E-8
         2018.958     5.187431E-8
          2020.76     5.477419E-8
         2022.563     4.791443E-8
         2024.368     4.098169E-8
         2026.173     3.398503E-8
         2027.982     2.691465E-8
         2029.791     1.977927E-8
         2031.602     1.732166E-8
         2033.414     1.546498E-8
         2035.228     1.358996E-8
         2037.044     1.169538E-8
         2038.861     9.783425E-9
         2040.681     3.660130E-8
         2042.502     1.120051E-7
         2044.324     1.880814E-7
         2046.147     2.648686E-7
         2047.974     3.424271E-7
           2049.8     4.206621E-7
          2051.63     3.659573E-7
         2053.461     2.942556E-7
         2055.291     2.219579E-7
         2057.125     1.488969E-7
         2058.961     7.514609E-8
         2060.798     4.223421E-8
         2062.637     6.330089E-8
         2064.477     8.454619E-8
         2066.318     1.059821E-7
         2068.164     1.276381E-7
         2070.007     1.493599E-7
         2071.855     1.479705E-7
         2073.704     1.465649E-7
         2075.553     1.451436E-7
         2077.405     1.437060E-7
         2079.259     1.422505E-7
         2081.113     1.267564E-7
         2082.971     1.017239E-7
         2084.829     7.648463E-8
         2086.688     5.102441E-8
          2088.55     2.532206E-8
         2090.414     5.127242E-9
         2092.279     4.916458E-9
         2094.145     4.703804E-9
         2096.014     4.489049E-9
         2097.885     4.272380E-9
         2099.756     4.053899E-9
          2101.63     7.645152E-9
         2103.503     1.183489E-8
         2105.381     1.606367E-8
          2107.26     2.032786E-8
         2109.139     2.462427E-8
         2111.022     3.148844E-8
         2112.906     4.054846E-8
         2114.789     4.966883E-8
         2116.677     5.887351E-8
         2118.564     6.814498E-8
         2120.455     7.243032E-8
         2122.348     6.070965E-8
         2124.241     4.890628E-8
         2126.135     3.700928E-8
         2128.033     2.501355E-8
         2129.932     1.292327E-8
         2131.832     1.101751E-8
         2133.734     9.477801E-9
         2135.637     7.926735E-9
         2137.544     6.362054E-9
          2139.45     4.788795E-9
         2141.359     5.664728E-9
          2143.27     7.548218E-9
         2145.182     9.444970E-9
         2147.096     1.135699E-8
         2149.011     1.328215E-8
         2150.929     1.422484E-8
         2152.848     1.410797E-8
         2154.768     1.399004E-8
         2156.692     1.387091E-8
         2158.615     1.375094E-8
         2160.541     1.317787E-8
         2162.469     1.143982E-8
         2164.397     9.692004E-9
          2166.33     7.928815E-9
         2168.263     6.154417E-9
         2170.196     5.360928E-9
         2172.133     1.337932E-8
          2174.07     2.144231E-8
         2176.011     2.956229E-8
         2177.953     3.773343E-8
         2179.895     4.594968E-8
          2181.84     4.476957E-8
         2183.787     4.304138E-8
         2185.735     4.130353E-8
         2187.686     3.955427E-8
         2189.637     3.779549E-8
          2191.59     4.557954E-8
         2193.546     5.560084E-8
         2195.503     6.567402E-8
         2197.462     7.579547E-8
         2199.423     8.597801E-8
         2201.385     7.774020E-8
         2203.348     6.158236E-8
         2205.315     4.513970E-8
         2207.283     2.842278E-8
         2209.252     1.144077E-8
         2211.222     6.356844E-9
         2213.196     8.708767E-9
          2215.17     1.109526E-8
         2217.147     1.352006E-8
         2219.125     1.598158E-8
         2221.104     3.471667E-8
         2223.086     6.675061E-8
         2225.071     9.928525E-8
         2227.055     1.322421E-7
         2229.042     1.657245E-7
         2231.031     1.695214E-7
         2233.021     1.451187E-7
         2235.015     1.203179E-7
         2237.008     9.517798E-8
         2239.003     6.966395E-8
         2241.002     7.388343E-8
         2242.999     1.083030E-7
         2245.002     1.432602E-7
         2247.005     1.786557E-7
         2249.009     2.145339E-7
         2251.016     2.109556E-7
         2253.024     1.680932E-7
         2255.033     1.246431E-7
         2257.046     8.057049E-8
         2259.061     3.590427E-8
         2261.075     1.798299E-8
         2263.092     2.384934E-8
         2265.112     2.979438E-8
         2267.134     3.581489E-8
         2269.156     4.190679E-8
         2271.181     4.006371E-8
         2273.207     3.243272E-8
         2275.234     2.470384E-8
         2277.266     1.686717E-8
         2279.296     8.947795E-9
          2281.33     9.617152E-9
         2283.366     1.492669E-8
         2285.402     2.029364E-8
         2287.441     2.573112E-8
         2289.483     3.123236E-8
         2291.525     2.886878E-8
          2293.57     2.376808E-8
         2295.615     1.861268E-8
         2297.663     1.339305E-8
         2299.715     8.105880E-9
         2301.765     8.634977E-9
          2303.82     1.012508E-8
         2305.876     1.163263E-8
         2307.932     1.315679E-8
         2309.992     1.469963E-8
         2312.051     1.502375E-8
         2314.116     1.534679E-8
          2316.18     1.567250E-8
         2318.246     1.600119E-8
         2320.315     1.599930E-8
         2322.385     1.412668E-8
         2324.457     1.223054E-8
         2326.531     1.031326E-8
         2328.606     8.373389E-9
         2330.685     7.172244E-9
         2332.764     7.519917E-9
         2334.845     7.871204E-9
         2336.927     8.226040E-9
         2339.012     8.584482E-9
         2341.101     9.382647E-9
         2343.188     1.058107E-8
         2345.279     1.179234E-8
         2347.372     1.301709E-8
         2349.467     1.425453E-8
         2351.562     1.606475E-8
         2353.661     1.808765E-8
         2355.759     2.012856E-8
         2357.862     2.219303E-8
         2359.966     2.427831E-8
         2362.071     2.310608E-8
         2364.179     2.186563E-8
         2366.288     2.061232E-8
         2368.398     1.934524E-8
         2370.512     1.798581E-8
         2372.628     1.636713E-8
         2374.744     1.473262E-8
         2376.863     1.308014E-8
         2378.983     1.141153E-8
         2381.105     1.979212E-8
          2383.23     3.757540E-8
         2385.357     5.552997E-8
         2387.485     7.364813E-8
         2389.615     9.193873E-8
         2391.747     8.153298E-8
         2393.881     6.463149E-8
         2396.017     4.755727E-8
         2398.154     3.033115E-8
         2400.293     1.692369E-8
         2402.435     2.860932E-8
          2404.58     4.040346E-8
         2406.724     5.229705E-8
         2408.872     6.430537E-8
         2411.022     6.684218E-8
         2413.171     5.878999E-8
         2415.326     5.064901E-8
         2417.479     4.244942E-8
         2419.637     3.416406E-8
         2421.796     3.200565E-8
         2423.957     3.108709E-8
          2426.12     3.015916E-8
         2428.284     2.922297E-8
         2430.451     2.977723E-8
         2432.619     3.606809E-8
         2434.789     4.241092E-8
         2436.962     4.881097E-8
         2439.136     5.526343E-8
         2441.312     7.994336E-8
          2443.49     1.168400E-7
          2445.67     1.540624E-7
         2447.853     1.915952E-7
         2450.036     2.281647E-7
         2452.222     1.914682E-7
         2454.409     1.544671E-7
           2456.6     1.171355E-7
         2458.792     7.950091E-8
         2460.985     6.425537E-8
          2463.18     7.681568E-8
         2465.379     8.948358E-8
         2467.579     1.022496E-7
         2469.778     1.150998E-7
         2471.983     1.208048E-7
          2474.19     1.257396E-7
         2476.396     1.307019E-7
         2478.606     1.357066E-7
         2480.817     1.437145E-7
         2483.029     1.568737E-7
         2485.247     1.701501E-7
         2487.462     1.835015E-7
         2489.682     1.969694E-7
         2491.904     1.659100E-7
         2494.125     1.271752E-7
         2496.353     8.806436E-8
         2498.579     4.869616E-8
         2500.808     2.270549E-8
          2503.04     2.067814E-8
         2505.272     1.863610E-8
         2507.509     1.657637E-8
         2509.745     1.450208E-8
         2511.985     1.671246E-8
         2514.225     1.949310E-8
         2516.468     2.229502E-8
         2518.714     2.511953E-8
         2520.962     3.176023E-8
          2523.21     4.353890E-8
         2525.462     5.541462E-8
         2527.715     6.737226E-8
         2529.971     7.942766E-8
         2532.229     6.531884E-8
         2534.486     5.077121E-8
         2536.748     3.609377E-8
          2539.01     2.127836E-8
         2541.277     1.422890E-8
         2543.545     1.324544E-8
         2545.813     1.225846E-8
         2548.084     1.126744E-8
         2550.358     1.217634E-8
         2552.635     2.330270E-8
         2554.911     3.446430E-8
         2557.191     4.567774E-8
         2559.471     5.692122E-8
         2561.755     5.776804E-8
         2564.042     5.545875E-8
         2566.329     5.314097E-8
         2568.619     5.081225E-8
         2570.908     4.654498E-8
         2573.205     3.930201E-8
           2575.5     3.204010E-8
         2577.797     2.474782E-8
         2580.097     1.780866E-8
         2582.399     1.958623E-8
         2584.704     2.137191E-8
          2587.01     2.316418E-8
         2589.318     2.496242E-8
         2591.629     2.703326E-8
          2593.94     2.922228E-8
         2596.254     3.141938E-8
         2598.573     3.362776E-8
         2600.889     3.288208E-8
          2603.21     2.736371E-8
         2605.532     2.182641E-8
         2607.856     1.626623E-8
         2610.185     1.136141E-8
         2612.512     1.439359E-8
         2614.843     1.744134E-8
         2617.177     2.050143E-8
          2619.51     2.356995E-8
         2621.849     2.799397E-8
         2624.188     3.278598E-8
         2626.528     3.759692E-8
         2628.873     4.243024E-8
         2631.217     4.418726E-8
         2633.566     4.307907E-8
         2635.916     4.196577E-8
         2638.267     4.084796E-8
          2640.62     4.534336E-8
         2642.977     6.560198E-8
         2645.334     8.593157E-8
         2647.695     1.063549E-7
         2650.057     1.257683E-7
         2652.422     1.013688E-7
         2654.788     7.688342E-8
         2657.157     5.227968E-8
         2659.526     2.760373E-8
         2661.899     2.575406E-8
         2664.275     2.964139E-8
         2666.652     3.354207E-8
         2669.031     3.746046E-8
         2671.412     3.708736E-8
         2673.796     3.375019E-8
         2676.181     3.040115E-8
          2678.57     2.703583E-8
          2680.96     2.372176E-8
          2683.35     2.049535E-8
         2685.746     1.724968E-8
          2688.14     1.399639E-8
          2690.54     1.773261E-8
         2692.941     4.569228E-8
         2695.343     7.375160E-8
         2697.748     1.019385E-7
         2700.153     1.280158E-7
         2702.563     1.219139E-7
         2704.975     1.157664E-7
         2707.387     1.095765E-7
         2709.804     1.033359E-7
         2712.222     1.051488E-7
         2714.642     1.076886E-7
         2717.063     1.102441E-7
         2719.486     1.128160E-7
         2721.915     9.766465E-8
         2724.343     7.764869E-8
         2726.772     5.748869E-8
         2729.205     3.718431E-8
          2731.64     2.756520E-8
         2734.078     2.315568E-8
         2736.517     1.871716E-8
         2738.958     1.424735E-8
         2741.402     1.293347E-8
         2743.849     1.399105E-8
         2746.296     1.505508E-8
         2748.747     1.612699E-8
         2751.198     1.615816E-8
         2753.653     1.509283E-8
         2756.111     1.402497E-8
         2758.569     1.295523E-8
         2761.031     1.397926E-8
         2763.495     1.792094E-8
         2765.958     2.186710E-8
         2768.427     2.582715E-8
         2770.898     2.718333E-8
         2773.369     2.395931E-8
         2775.844     2.072587E-8
          2778.32     1.748684E-8
         2780.799     2.783054E-8
          2783.28     6.684778E-8
         2785.764     1.059578E-7
         2788.249     1.451300E-7
         2790.736     1.615236E-7
         2793.227     1.234409E-7
          2795.72     8.527306E-8
         2798.213     4.704226E-8
         2800.709     1.946941E-8
         2803.209     1.894053E-8
         2805.709     1.841077E-8
         2808.213     1.787948E-8
         2810.718     1.716838E-8
         2813.226     1.600869E-8
         2815.736     1.484718E-8
         2818.247     1.368315E-8
         2820.764     1.489885E-8
         2823.278     2.158270E-8
         2825.798     2.828903E-8
          2828.32     3.500943E-8
         2830.843     4.547339E-8
         2833.369     6.342228E-8
         2835.898     8.141010E-8
         2838.426     9.941252E-8
         2840.959     1.141484E-7
         2843.495     1.234433E-7
         2846.031     1.327515E-7
         2848.571     1.420856E-7
         2851.112     1.328718E-7
         2853.655     9.974033E-8
         2856.202     6.652373E-8
         2858.751     3.324092E-8
         2861.301     4.540387E-8
         2863.853     1.013514E-7
         2866.407     1.574136E-7
         2868.965     2.136229E-7
         2871.526     2.188664E-7
         2874.087     1.894586E-7
         2876.652     1.599722E-7
         2879.218     1.304492E-7
         2881.788     1.061798E-7
         2884.358     8.421558E-8
         2886.931     6.220770E-8
         2889.507     4.014562E-8
         2892.084     3.181447E-8
         2894.666     2.672371E-8
         2897.248     2.162596E-8
         2899.832     1.651927E-8
         2902.421     1.533700E-8
          2905.01     1.443141E-8
         2907.601     1.352726E-8
         2910.198     1.289649E-8
          2912.79     1.557050E-8
         2915.392     1.824625E-8
         2917.992     2.091366E-8
         2920.594     2.272942E-8
         2923.203     2.168231E-8
         2925.807     2.063952E-8
          2928.42     1.959610E-8
         2931.033     1.829417E-8
         2933.646     1.659765E-8
         2936.266     1.490126E-8
         2938.885     1.321022E-8
         2941.506     1.305024E-8
         2944.131     1.402182E-8
         2946.757     1.499080E-8
         2949.387     1.595835E-8
         2952.018     5.133050E-8
         2954.653     9.709418E-8
          2957.29     1.427643E-7
         2959.926     1.882855E-7
         2962.567     1.568686E-7
          2965.21     1.233123E-7
         2967.856     8.980938E-8
         2970.505     6.025400E-8
         2973.155     4.723350E-8
         2975.808     3.423203E-8
         2978.461     2.127485E-8
         2981.121     1.831278E-8
          2983.78     2.905869E-8
         2986.441     3.978082E-8
         2989.104     5.047804E-8
         2991.772     4.658713E-8
         2994.442     3.534935E-8
         2997.113     2.414273E-8
         2999.788     1.295410E-8
         3002.464     1.364431E-8
         3005.142     1.534977E-8
         3007.826     1.705333E-8
         3010.507     2.189641E-8
         3013.194     4.023983E-8
         3015.883     5.853987E-8
         3018.573     7.678470E-8
         3021.267     7.812243E-8
          3023.96     6.048171E-8
          3026.66     4.285127E-8
          3029.36     2.528399E-8
         3032.062     2.108767E-8
          3034.77     2.103380E-8
         3037.475     2.098000E-8
         3040.186     2.075713E-8
         3042.897     1.824474E-8
         3045.612     1.573833E-8
         3048.332     1.323501E-8
         3051.051     1.172768E-8
         3053.772     1.178967E-8
         3056.497     1.185145E-8
         3059.222     1.191290E-8
         3061.954     1.512474E-8
         3064.685     1.957596E-8
         3067.418     2.401566E-8
         3070.156     2.821011E-8
         3072.896     2.849752E-8
         3075.637     2.878378E-8
          3078.38     2.906901E-8
         3081.126     2.760626E-8
         3083.877     2.363177E-8
         3086.628     1.967261E-8
         3089.381     1.572461E-8
         3092.137     1.627744E-8
         3094.895     1.812795E-8
         3097.659     1.997539E-8
         3100.422     2.461800E-8
         3103.187     4.487396E-8
         3105.955     6.520736E-8
         3108.729     8.564363E-8
         3111.501     1.107054E-7
