#  Table wf4f300wsys.tab  Mon 12:22:43 02-Jun-97

#      WAVELENGTH      THROUGHPUT
#       angstroms                

            2220.    1.717070E-11
         2221.779     2.812290E-9
         2223.557     5.640854E-9
         2225.339     8.511567E-9
         2227.122     1.142034E-8
         2228.904     1.436409E-8
          2230.69     2.249449E-8
         2232.476     3.894796E-8
         2234.265     5.562645E-8
         2236.054     7.250812E-8
         2237.846     8.961695E-8
         2239.636     1.069187E-7
         2241.431     1.295017E-7
         2243.227     1.536559E-7
         2245.023     1.780853E-7
         2246.821     2.028142E-7
          2248.62     2.278371E-7
         2250.421     2.715739E-7
         2252.225     3.767710E-7
         2254.027     4.829922E-7
         2255.833     5.906297E-7
          2257.64     6.994575E-7
         2259.448     8.095532E-7
         2261.258     1.007585E-6
          2263.07     1.246194E-6
         2264.881     1.487161E-6
         2266.696     1.731212E-6
          2268.51     1.977801E-6
         2270.327     2.298492E-6
         2272.146     2.950224E-6
         2273.966     3.608790E-6
         2275.786     4.274474E-6
         2277.609     4.947392E-6
         2279.434     5.628030E-6
         2281.259     6.661718E-6
         2283.087     7.863888E-6
         2284.915     9.077969E-6
         2286.744     1.030481E-5
         2288.576     1.154462E-5
         2290.411     1.310326E-5
         2292.243     1.573473E-5
          2294.08     1.839684E-5
         2295.917     2.108442E-5
         2297.755     2.380620E-5
         2299.597     2.655956E-5
         2301.438     3.046015E-5
         2303.281     3.471802E-5
         2305.126     3.902415E-5
         2306.971     4.336900E-5
         2308.821     4.776831E-5
         2310.669     5.346189E-5
          2312.52     6.143872E-5
         2314.371     6.949655E-5
         2316.226     7.764319E-5
         2318.081     8.586724E-5
         2319.938     9.417986E-5
         2321.796     1.049358E-4
         2323.655     1.158811E-4
         2325.515     1.269348E-4
         2327.379     1.381047E-4
         2329.242     1.493780E-4
         2331.107     1.646868E-4
         2332.975     1.828596E-4
         2334.842     2.011821E-4
         2336.713     2.197076E-4
         2338.585     2.384129E-4
         2340.458     2.577037E-4
         2342.332     2.784871E-4
         2344.208     2.994645E-4
         2346.085     3.206395E-4
         2347.966     3.420379E-4
         2349.846     3.636049E-4
         2351.728     3.955617E-4
         2353.611     4.287241E-4
         2355.495     4.621925E-4
         2357.383     4.959814E-4
         2359.271     5.300790E-4
         2361.159     5.689380E-4
         2363.052     6.110431E-4
         2364.944     6.534863E-4
         2366.839     6.963351E-4
         2368.734     7.395240E-4
         2370.632     7.864986E-4
         2372.529     8.405904E-4
          2374.43     8.952146E-4
         2376.332     9.503111E-4
         2378.234     0.001005803
         2380.139     0.001062381
         2382.047      0.00112641
         2383.953     0.001190879
         2385.863     0.001255977
         2387.775     0.001321601
         2389.685     0.001387676
           2391.6     0.001464709
         2393.515      0.00154435
         2395.433     0.001624688
         2397.351     0.001705603
         2399.271     0.001787167
         2401.192     0.001872772
         2403.116     0.001961195
         2405.042     0.002050299
         2406.967     0.002140027
         2408.895     0.002230452
         2410.823     0.002326056
         2412.754     0.002428462
         2414.689     0.002531789
         2416.621     0.002635662
         2418.557     0.002740447
         2420.494     0.002847146
         2422.432     0.002958107
         2424.373     0.003069967
         2426.316     0.003182631
         2428.257     0.003295945
         2430.203     0.003411326
         2432.149     0.003536837
         2434.096     0.003663211
         2436.047     0.003790582
         2437.997     0.003918759
         2439.949     0.004047825
         2441.903     0.004177351
         2443.861     0.004307924
         2445.817     0.004439122
         2447.777     0.004571386
         2449.737     0.004704457
         2451.698     0.004844591
         2453.663     0.004986703
         2455.627     0.005129685
         2457.594      0.00527361
         2459.563     0.005418588
         2461.531      0.00555916
         2463.503      0.00569937
         2465.477      0.00584048
         2467.451     0.005982405
         2469.427     0.006125251
         2471.406      0.00627699
         2473.384     0.006432702
         2475.367     0.006589727
         2477.349     0.006747549
         2479.333     0.006906361
         2481.318     0.007058506
         2483.306     0.007207799
         2485.295     0.007357916
         2487.286     0.007509045
         2489.278     0.007661025
         2491.271     0.007819583
         2493.266     0.007982306
         2495.264     0.008146184
         2497.261     0.008310916
         2499.261     0.008476688
         2501.264      0.00863291
         2503.265     0.008783599
         2505.271     0.008935406
         2507.277     0.009087991
         2509.286     0.009241606
         2511.295     0.009402885
         2513.308     0.009569034
         2515.319     0.009735962
         2517.336     0.009904218
          2519.35      0.01007314
         2521.369      0.01022804
         2523.388       0.0103765
         2525.408       0.0105258
         2527.432      0.01067609
         2529.457      0.01082722
         2531.481      0.01098575
          2533.51      0.01114791
         2535.538      0.01131089
          2537.57      0.01146965
         2539.602      0.01161533
         2541.637      0.01174253
          2543.67      0.01186525
         2545.708      0.01198846
         2547.749      0.01211201
         2549.787      0.01223569
          2551.83      0.01236929
         2553.875      0.01250438
         2555.918      0.01263962
         2557.967      0.01277541
         2560.016      0.01291134
         2562.065      0.01302105
         2564.117      0.01313116
         2566.171      0.01324146
         2568.227      0.01335211
         2570.283      0.01346397
         2572.343      0.01358273
         2574.401      0.01370161
         2576.464      0.01382094
         2578.527      0.01394047
         2580.593      0.01405362
          2582.66      0.01415017
         2584.729      0.01424698
         2586.797      0.01434388
         2588.872      0.01444117
         2590.943      0.01453908
         2593.019      0.01463809
         2595.095      0.01473725
         2597.173      0.01483659
         2599.254      0.01493622
         2601.337      0.01502797
         2603.419      0.01511527
         2605.505      0.01520284
          2607.59      0.01529045
         2609.679      0.01537834
          2611.77      0.01546628
         2613.862      0.01555431
         2615.955       0.0156425
         2618.049      0.01573084
         2620.148      0.01581889
         2622.245      0.01589954
         2624.346      0.01598042
         2626.448      0.01606136
         2628.551      0.01614244
         2630.657      0.01622219
         2632.765      0.01629874
         2634.872      0.01637529
         2636.983      0.01645204
         2639.094      0.01652884
         2641.209       0.0165999
         2643.324      0.01666654
          2645.44      0.01673326
         2647.559      0.01680004
          2649.68      0.01686691
           2651.8      0.01692586
         2653.927      0.01698356
         2656.052       0.0170412
         2658.178      0.01709886
         2660.307       0.0171558
         2662.439      0.01720834
         2664.571      0.01726083
         2666.706      0.01731337
         2668.841      0.01736587
         2670.978      0.01741797
         2673.117      0.01746959
         2675.259      0.01752125
         2677.401      0.01757285
         2679.545      0.01762445
         2681.692       0.0176766
         2683.838      0.01772879
         2685.988      0.01778105
          2688.14      0.01783331
         2690.293      0.01788756
         2692.447      0.01795493
         2694.603      0.01802233
         2696.761      0.01808977
         2698.923      0.01815735
         2701.084      0.01823268
         2703.247      0.01831598
         2705.412      0.01839955
         2707.578      0.01848336
         2709.747      0.01856748
         2711.919      0.01864863
          2714.09      0.01872951
         2716.263      0.01881064
         2718.438      0.01889199
         2720.617      0.01896941
         2722.795      0.01903627
         2724.977       0.0191033
         2727.157      0.01917038
         2729.343      0.01923769
         2731.528      0.01930138
         2733.715      0.01936358
         2735.906      0.01942591
         2738.098      0.01948836
         2740.289      0.01955019
         2742.485      0.01960806
         2744.681      0.01966595
         2746.878      0.01972393
         2749.079      0.01978201
         2751.279      0.01981567
         2753.485       0.0198318
          2755.69      0.01984792
         2757.897      0.01986407
         2760.105      0.01987992
         2762.317      0.01988964
          2764.53      0.01989937
         2766.744       0.0199091
         2768.959      0.01991883
         2771.176      0.01992744
         2773.395      0.01993504
         2775.619      0.01994266
          2777.84      0.01995026
         2780.066      0.01995767
         2782.292      0.01995843
          2784.52      0.01995918
         2786.751      0.01995991
         2788.984      0.01996063
         2791.216      0.01996275
         2793.452      0.01996605
         2795.689      0.01996936
         2797.927      0.01997264
         2800.169      0.01997558
          2802.41      0.01997422
         2804.656      0.01997284
         2806.901      0.01997145
         2809.151      0.01997004
           2811.4      0.01996659
         2813.653      0.01996188
         2815.904      0.01995716
          2818.16      0.01995241
         2820.419      0.01994746
         2822.677      0.01994166
         2824.937      0.01993585
         2827.201      0.01993001
         2829.463      0.01992415
         2831.732      0.01992013
         2833.999      0.01991668
         2836.269      0.01991322
          2838.54      0.01990973
         2840.814      0.01990777
         2843.089      0.01990855
         2845.367      0.01990933
         2847.645       0.0199101
         2849.926      0.01991086
         2852.208      0.01990336
         2854.491      0.01989556
         2856.777      0.01988774
         2859.068      0.01987989
         2861.357      0.01987657
         2863.648      0.01987637
         2865.943      0.01987616
         2868.238      0.01987594
         2870.534      0.01987374
         2872.833      0.01986505
         2875.135      0.01985631
         2877.436      0.01984757
         2879.741      0.01983879
         2882.047      0.01983355
         2884.356      0.01982874
         2886.666      0.01982391
         2888.979      0.01981907
         2891.291      0.01980835
         2893.609      0.01979292
         2895.924      0.01977749
         2898.245      0.01976201
         2900.566      0.01973818
          2902.89      0.01968848
         2905.214      0.01963881
         2907.541      0.01958913
         2909.869      0.01953944
           2912.2      0.01949783
         2914.532      0.01945672
         2916.867      0.01941556
         2919.203      0.01937441
         2921.542      0.01932838
          2923.88      0.01927991
         2926.223      0.01923138
         2928.568      0.01918284
         2930.911      0.01913332
          2933.26       0.0190821
         2935.608      0.01903092
         2937.959      0.01897972
         2940.313      0.01892922
         2942.669      0.01888336
         2945.024      0.01883756
         2947.384      0.01879168
         2949.744      0.01874583
         2952.107      0.01869696
         2954.471      0.01864775
         2956.838      0.01859851
         2959.204      0.01854934
         2961.575      0.01850144
         2963.947      0.01845424
         2966.322      0.01840702
         2968.697      0.01835983
         2971.074      0.01830863
         2973.453      0.01825261
         2975.837      0.01819653
         2978.219      0.01814058
         2980.605      0.01808641
          2982.99      0.01803773
         2985.382      0.01798895
         2987.772      0.01794025
         2990.165      0.01789116
         2992.559      0.01783679
         2994.957       0.0177824
         2997.355      0.01772805
         2999.755      0.01767373
         3002.159       0.0176196
         3004.563      0.01756554
         3006.969      0.01751151
         3009.376      0.01745749
          3011.79        0.017404
         3014.199      0.01735086
         3016.615      0.01729765
          3019.03      0.01724449
         3021.448      0.01719231
         3023.869      0.01714076
          3026.29      0.01708925
         3028.713      0.01703775
          3031.14      0.01698362
         3033.567      0.01692662
         3035.998       0.0168696
         3038.427      0.01681269
         3040.864      0.01675602
         3043.297      0.01670012
         3045.735      0.01664417
         3048.174      0.01658827
         3050.617      0.01653137
         3053.059      0.01647159
         3055.504      0.01641183
         3057.951      0.01635212
         3060.401      0.01629272
         3062.852        0.016235
         3065.306      0.01617727
         3067.759      0.01611965
         3070.217      0.01606166
         3072.677      0.01600024
         3075.137       0.0159389
           3077.6      0.01587761
         3080.064      0.01581635
          3082.53       0.0157548
            3085.      0.01569326
          3087.47      0.01563181
         3089.944      0.01557036
         3092.418      0.01550699
         3094.895      0.01544364
         3097.373      0.01538033
         3099.853      0.01531708
         3102.339      0.01529795
         3104.821      0.01528153
         3107.309        0.015265
         3109.797      0.01524837
         3112.287      0.01522693
         3114.781      0.01520492
         3117.277       0.0151828
         3119.771       0.0151606
         3122.271      0.01513491
         3124.771      0.01510878
         3127.275       0.0150825
         3129.779       0.0150561
         3132.287      0.01502843
         3134.793      0.01500055
         3137.305      0.01497248
         3139.817      0.01494431
         3142.331      0.01491972
         3144.849      0.01489529
         3147.369      0.01487072
         3149.888      0.01484607
         3152.412      0.01481133
         3154.936        0.014776
         3157.462      0.01474049
         3159.992      0.01470481
         3162.521       0.0146746
         3165.057      0.01464419
         3167.591      0.01461369
         3170.127       0.0145827
         3172.666      0.01454515
         3175.208      0.01450739
          3177.75       0.0144695
         3180.297      0.01443179
         3182.843      0.01439675
         3185.392      0.01436156
         3187.942      0.01432621
         3190.499      0.01428886
         3193.052       0.0142441
          3195.61      0.01419909
         3198.169      0.01415392
          3200.73      0.01411072
         3203.295       0.0140728
         3205.861       0.0140347
         3208.427      0.01399649
         3210.997      0.01395408
         3213.569      0.01390523
         3216.142      0.01385618
         3218.719       0.0138069
         3221.294      0.01376068
         3223.875      0.01371739
         3226.457      0.01367395
         3229.042      0.01363028
         3231.628      0.01358075
         3234.217      0.01352761
         3236.805      0.01347432
         3239.399      0.01342073
         3241.995      0.01337276
         3244.591      0.01332637
         3247.188      0.01327979
         3249.791      0.01323297
         3252.391      0.01317527
         3254.999      0.01311627
         3257.605      0.01305711
         3260.214      0.01299815
         3262.824      0.01294396
         3265.439      0.01288951
         3268.053      0.01283487
         3270.672      0.01277777
         3273.291      0.01271408
         3275.912      0.01265014
         3278.535      0.01258593
          3281.16      0.01252628
          3283.79      0.01247244
         3286.421      0.01241837
         3289.052      0.01236412
         3291.686      0.01230396
         3294.323       0.0122403
         3296.959      0.01217648
         3299.601      0.01211231
         3302.243      0.01205261
         3304.889      0.01199345
         3307.536       0.0119341
         3310.184      0.01187378
         3312.835      0.01180343
         3315.489      0.01173275
         3318.144      0.01166185
         3320.803      0.01159356
          3323.46       0.0115319
         3326.123      0.01146991
         3328.786      0.01140771
         3331.454      0.01133956
         3334.123      0.01126639
         3336.793      0.01119299
         3339.465       0.0111193
         3342.139      0.01105678
         3344.815      0.01099689
         3347.497      0.01093667
         3350.174      0.01087569
          3352.86      0.01080428
         3355.545      0.01073269
         3358.232      0.01066081
         3360.923      0.01059095
         3363.614      0.01052538
         3366.309      0.01045951
         3369.003      0.01039345
         3371.702      0.01032262
         3374.402      0.01024896
         3377.104      0.01017499
          3379.81      0.01010069
         3382.518      0.01004189
         3385.225     0.009984128
         3387.937      0.00992605
          3390.65     0.009858266
         3393.367     0.009759905
         3396.082     0.009661298
         3398.805       0.0095621
         3401.527      0.00948086
          3404.25     0.009413569
         3406.977     0.009346002
         3409.707      0.00927812
         3412.435     0.009214359
         3415.171     0.009150728
         3417.904     0.009086966
         3420.643     0.009021708
         3423.382      0.00895247
         3426.125     0.008882909
         3428.868     0.008813109
         3431.614     0.008746655
         3434.363     0.008682435
         3437.113     0.008618003
         3439.865     0.008553302
         3442.622     0.008484408
         3445.376     0.008415132
         3448.137     0.008345477
           3450.9     0.008278077
         3453.663     0.008215702
         3456.429     0.008153066
         3459.197     0.008090179
          3461.97     0.008024544
          3464.74     0.007957793
         3467.517     0.007890679
         3470.293     0.007824171
         3473.072     0.007764471
         3475.853     0.007704524
         3478.636      0.00764433
         3481.424     0.007581315
         3484.213     0.007515608
         3487.001     0.007449716
         3489.797      0.00738342
          3492.59     0.007324664
         3495.388     0.007266185
         3498.187     0.007207504
          3500.99     0.007146842
         3503.793     0.007082851
         3506.599     0.007018595
         3509.407     0.006954074
         3512.221     0.006896082
         3515.029     0.006839845
         3517.848     0.006783209
         3520.665     0.006725144
         3523.484     0.006662674
         3526.305     0.006599951
         3529.131     0.006536922
         3531.958     0.006479585
         3534.787     0.006424693
         3537.617     0.006369564
          3540.45     0.006313403
