#  Table wf4f702wsys.tab  Mon 12:22:53 02-Jun-97

#      WAVELENGTH      THROUGHPUT
#       angstroms                

            1850.     3.951572E-8
         1851.651     8.948094E-8
         1853.301     1.398838E-7
         1854.956     1.908728E-7
         1856.611     2.422854E-7
         1858.267     2.941952E-7
         1859.925     3.466358E-7
         1861.584     3.158861E-7
         1863.246     2.808365E-7
         1864.909     2.454306E-7
         1866.572     2.096928E-7
         1868.237     1.735952E-7
         1869.904     1.371174E-7
         1871.573     1.689013E-7
         1873.242     2.051794E-7
         1874.913     2.418073E-7
         1876.585     2.787895E-7
          1878.26     3.161551E-7
         1879.937     3.537398E-7
         1881.613     3.422751E-7
         1883.292     3.287594E-7
         1884.973     3.151113E-7
         1886.654     3.013464E-7
         1888.338     2.874473E-7
         1890.023     2.735893E-7
         1891.709     2.717668E-7
         1893.396     2.699211E-7
         1895.086     2.680512E-7
         1896.775     2.661605E-7
         1898.469     2.642428E-7
         1900.163     2.595610E-7
         1901.857     2.290680E-7
         1903.555     1.982656E-7
         1905.254     1.671900E-7
         1906.953     1.358628E-7
         1908.655     1.042428E-7
         1910.357     7.640571E-8
         1912.061     6.360704E-8
         1913.768     5.068842E-8
         1915.476     3.765585E-8
         1917.184     2.451743E-8
         1918.894     1.126442E-8
         1920.606     8.113920E-9
          1922.32     2.368707E-8
         1924.035     3.939440E-8
         1925.752     5.522842E-8
          1927.47     7.120644E-8
         1929.189     8.731188E-8
          1930.91     8.945837E-8
         1932.634     7.900128E-8
         1934.358     6.845137E-8
         1936.084     5.781513E-8
         1937.811     4.708406E-8
          1939.54     3.625248E-8
          1941.27     2.955599E-8
         1943.003     2.433419E-8
         1944.737     1.906623E-8
          1946.47     1.375871E-8
         1948.207     8.398399E-9
         1949.947     2.988430E-9
         1951.685     4.125272E-9
         1953.427     5.481109E-9
         1955.171     6.848504E-9
         1956.913     8.225844E-9
          1958.66     9.616542E-9
         1960.408     1.058453E-8
         1962.157     1.012703E-8
         1963.908     9.664985E-9
         1965.658     9.199265E-9
         1967.413     8.728713E-9
         1969.169     8.253834E-9
         1970.925     1.273498E-8
         1972.684     2.173882E-8
         1974.444     3.081424E-8
         1976.205     3.996705E-8
         1977.969     4.920841E-8
         1979.734     5.851683E-8
           1981.5     6.137434E-8
         1983.268     6.309119E-8
         1985.037     6.482006E-8
         1986.809     6.656296E-8
         1988.581     6.831785E-8
         1990.355     6.741394E-8
         1992.131     5.578472E-8
         1993.908     4.405471E-8
         1995.688     3.220894E-8
         1997.467     2.028376E-8
          1999.25     8.242088E-9
         2001.034     3.156181E-9
         2002.818     3.170360E-9
         2004.606     3.184604E-9
         2006.396     3.198878E-9
         2008.184     3.213173E-9
         2009.976     3.227525E-9
         2011.769     3.604744E-9
         2013.565     3.990659E-9
         2015.362     4.380272E-9
         2017.158     4.773091E-9
         2018.958     5.170096E-9
          2020.76     5.946084E-9
         2022.563     7.245383E-9
         2024.368     8.557998E-9
         2026.173     9.882210E-9
         2027.982     1.121988E-8
         2029.791     1.256934E-8
         2031.602     2.298039E-8
         2033.414     3.467330E-8
         2035.228     4.647766E-8
         2037.044     5.840126E-8
         2038.861     7.043022E-8
         2040.681     7.306252E-8
         2042.502     5.971926E-8
         2044.324     4.625467E-8
         2046.147     3.266193E-8
         2047.974     1.893028E-8
           2049.8     5.076565E-9
          2051.63     4.160686E-9
         2053.461     4.846852E-9
         2055.291     5.538504E-9
         2057.125     6.237242E-9
         2058.961     6.942359E-9
         2060.798     7.230836E-9
         2062.637     6.968758E-9
         2064.477     6.704250E-9
         2066.318     6.437158E-9
         2068.164     6.167110E-9
         2070.007     5.894521E-9
         2071.855     5.514686E-9
         2073.704     5.131318E-9
         2075.553     4.744609E-9
         2077.405     4.354337E-9
         2079.259     3.960124E-9
         2081.113     5.655123E-9
         2082.971     8.766974E-9
         2084.829     1.190401E-8
         2086.688     1.506796E-8
          2088.55     1.826149E-8
         2090.414     2.243551E-8
         2092.279     2.999118E-8
         2094.145     3.760905E-8
         2096.014     4.529740E-8
         2097.885     5.304961E-8
         2099.756     6.086179E-8
          2101.63     5.873445E-8
         2103.503     5.508614E-8
         2105.381     5.140240E-8
          2107.26     4.768641E-8
         2109.139     4.394091E-8
         2111.022     3.880517E-8
         2112.906     3.247952E-8
         2114.789     2.611049E-8
         2116.677     1.968138E-8
         2118.564     1.320436E-8
         2120.455     8.066941E-9
         2122.348     7.309509E-9
         2124.241     6.546670E-9
         2126.135     5.777717E-9
         2128.033     5.002320E-9
         2129.932     4.220750E-9
         2131.832     5.080562E-9
         2133.734     6.007821E-9
         2135.637     6.941726E-9
         2137.544     7.883632E-9
          2139.45     8.833147E-9
         2141.359     1.239122E-8
          2143.27     1.703565E-8
         2145.182     2.171279E-8
         2147.096     2.642762E-8
         2149.011     3.117486E-8
         2150.929     3.209253E-8
         2152.848     2.888597E-8
         2154.768     2.565581E-8
         2156.692     2.239781E-8
         2158.615     1.912220E-8
         2160.541     1.609409E-8
         2162.469     1.375418E-8
         2164.397     1.140113E-8
          2166.33     9.027419E-9
         2168.263     6.638635E-9
         2170.196     4.839993E-9
         2172.133     8.396187E-9
          2174.07     1.197213E-8
         2176.011     1.557333E-8
         2177.953     1.919718E-8
         2179.895     2.284102E-8
          2181.84     1.991219E-8
         2183.787     1.658716E-8
         2185.735     1.324416E-8
         2187.686     9.879771E-9
         2189.637     6.497699E-9
          2191.59     5.896719E-9
         2193.546     5.934457E-9
         2195.503     5.972347E-9
         2197.462     6.010379E-9
         2199.423     6.048598E-9
         2201.385     5.897666E-9
         2203.348     5.664094E-9
         2205.315     5.425900E-9
         2207.283     5.183236E-9
         2209.252     4.936230E-9
         2211.222     6.138782E-9
         2213.196     8.259093E-9
          2215.17     1.041053E-8
         2217.147     1.259647E-8
         2219.125     1.481546E-8
         2221.104     1.756048E-8
         2223.086     2.074608E-8
         2225.071     2.398023E-8
         2227.055     2.725510E-8
         2229.042     3.058095E-8
         2231.031     2.970496E-8
         2233.021     2.483598E-8
         2235.015     1.988791E-8
         2237.008     1.487252E-8
         2239.003     9.782819E-9
         2241.002     7.720224E-9
         2242.999     8.737778E-9
         2245.002     9.770811E-9
         2247.005     1.081638E-8
         2249.009     1.187579E-8
         2251.016     1.276752E-8
         2253.024     1.349132E-8
         2255.033     1.422390E-8
         2257.046     1.496586E-8
         2259.061     1.571670E-8
         2261.075     1.811734E-8
         2263.092     2.199170E-8
         2265.112     2.591761E-8
         2267.134     2.989296E-8
         2269.156     3.391507E-8
         2271.181     3.463810E-8
         2273.207     3.295780E-8
         2275.234     3.125441E-8
         2277.266     2.952573E-8
         2279.296     2.777731E-8
          2281.33     2.736822E-8
         2283.366     2.767969E-8
         2285.402     2.799302E-8
         2287.441     2.830898E-8
         2289.483     2.862717E-8
         2291.525     2.592864E-8
          2293.57     2.216434E-8
         2295.615     1.835942E-8
         2297.663     1.450814E-8
         2299.715     1.060705E-8
         2301.765     9.465364E-9
          2303.82     8.762840E-9
         2305.876     8.051363E-9
         2307.932     7.331323E-9
         2309.992     6.601736E-9
         2312.051     6.925797E-9
         2314.116     7.258016E-9
          2316.18     7.593410E-9
         2318.246     7.932305E-9
         2320.315     8.286028E-9
         2322.385     8.704755E-9
         2324.457     9.128159E-9
         2326.531     9.555710E-9
         2328.606     9.987730E-9
         2330.685     1.008220E-8
         2332.764     9.476969E-9
         2334.845     8.864403E-9
         2336.927     8.244609E-9
         2339.012     7.617488E-9
         2341.101     7.437835E-9
         2343.188     7.667052E-9
         2345.279     7.898481E-9
         2347.372     8.132238E-9
         2349.467     8.368172E-9
         2351.562     8.702566E-9
         2353.661     9.073544E-9
         2355.759     9.447585E-9
         2357.862     9.825712E-9
         2359.966     1.020741E-8
         2362.071     9.689058E-9
         2364.179     9.149621E-9
         2366.288     8.604605E-9
         2368.398     8.053615E-9
         2370.512     7.827302E-9
         2372.628     8.639686E-9
         2374.744     9.459399E-9
         2376.863     1.028750E-8
         2378.983     1.112309E-8
         2381.105     1.273614E-8
          2383.23     1.507794E-8
         2385.357     1.744195E-8
         2387.485     1.982715E-8
         2389.615     2.223471E-8
         2391.747     2.770396E-8
         2393.881     3.389388E-8
         2396.017     4.014518E-8
         2398.154     4.645024E-8
         2400.293     5.197145E-8
         2402.435     5.220970E-8
          2404.58     5.244861E-8
         2406.724     5.268797E-8
         2408.872     5.292809E-8
         2411.022     4.998726E-8
         2413.171     4.349950E-8
         2415.326     3.694034E-8
         2417.479     3.033405E-8
         2419.637     2.365877E-8
         2421.796     2.037415E-8
         2423.957     1.776223E-8
          2426.12     1.512554E-8
         2428.284     1.246726E-8
         2430.451     1.115272E-8
         2432.619     1.505949E-8
         2434.789     1.899873E-8
         2436.962     2.297368E-8
         2439.136     2.698138E-8
         2441.312     2.652409E-8
          2443.49     2.309027E-8
          2445.67     1.962531E-8
         2447.853     1.613064E-8
         2450.036     1.269412E-8
         2452.222     1.425721E-8
         2454.409     1.583276E-8
           2456.6     1.742187E-8
         2458.792     1.902336E-8
         2460.985     1.938881E-8
          2463.18     1.821991E-8
         2465.379     1.704045E-8
         2467.579     1.585127E-8
         2469.778     1.465370E-8
         2471.983     1.527803E-8
          2474.19     1.611332E-8
         2476.396     1.695338E-8
         2478.606     1.780073E-8
         2480.817     1.764310E-8
         2483.029     1.575104E-8
         2485.247     1.384134E-8
         2487.462     1.192003E-8
         2489.682     9.981164E-9
         2491.904     9.760801E-9
         2494.125     9.829129E-9
         2496.353     9.897915E-9
         2498.579     9.966945E-9
         2500.808     1.001390E-8
          2503.04     1.002145E-8
         2505.272     1.002885E-8
         2507.509     1.003610E-8
         2509.745     1.004321E-8
         2511.985     1.255877E-8
         2514.225     1.541541E-8
         2516.468     1.829400E-8
         2518.714     2.119588E-8
         2520.962     2.182780E-8
          2523.21     1.938797E-8
         2525.462     1.692746E-8
         2527.715     1.444943E-8
         2529.971     1.195057E-8
         2532.229     1.308541E-8
         2534.486     1.427551E-8
         2536.748     1.547586E-8
          2539.01     1.665719E-8
         2541.277     1.658036E-8
         2543.545     1.552376E-8
         2545.813     1.446336E-8
         2548.084     1.339862E-8
         2550.358     1.246093E-8
         2552.635     1.222697E-8
         2554.911     1.199211E-8
         2557.191     1.175600E-8
         2559.471     1.151910E-8
         2561.755     1.655709E-8
         2564.042     2.320965E-8
         2566.329     2.988443E-8
         2568.619     3.658844E-8
         2570.908     4.053406E-8
         2573.205     4.026349E-8
           2575.5     3.999172E-8
         2577.797     3.971833E-8
         2580.097     3.917521E-8
         2582.399     3.255633E-8
         2584.704     2.590587E-8
          2587.01     1.922958E-8
         2589.318     1.252969E-8
         2591.629     1.298915E-8
          2593.94     1.646721E-8
         2596.254     1.995848E-8
         2598.573     2.346808E-8
         2600.889     2.785502E-8
          2603.21     3.366719E-8
         2605.532     3.949848E-8
         2607.856     4.535307E-8
         2610.185     5.040705E-8
         2612.512     4.582896E-8
         2614.843     4.122647E-8
         2617.177     3.660444E-8
          2619.51     3.196878E-8
         2621.849     3.641582E-8
         2624.188     4.329317E-8
         2626.528     5.019775E-8
         2628.873     5.713448E-8
         2631.217     5.513995E-8
         2633.566     4.481535E-8
         2635.916     3.444808E-8
         2638.267     2.404373E-8
          2640.62     1.694351E-8
         2642.977     1.918955E-8
         2645.334     2.144330E-8
         2647.695     2.370727E-8
         2650.057     2.588025E-8
         2652.422     2.405515E-8
         2654.788     2.222340E-8
         2657.157     2.038256E-8
         2659.526     1.853609E-8
         2661.899     1.978920E-8
         2664.275     2.182548E-8
         2666.652     2.386867E-8
         2669.031     2.592104E-8
         2671.412     2.622924E-8
         2673.796     2.533382E-8
         2676.181     2.443497E-8
          2678.57     2.353153E-8
          2680.96     2.568274E-8
          2683.35     3.240238E-8
         2685.746     3.916106E-8
          2688.14     4.593456E-8
          2690.54     4.907377E-8
         2692.941     3.954646E-8
         2695.343     2.998442E-8
         2697.748     2.037811E-8
         2700.153     1.174174E-8
         2702.563     1.779585E-8
         2704.975     2.389244E-8
         2707.387     3.002849E-8
         2709.804     3.621219E-8
         2712.222     3.718560E-8
         2714.642     3.769970E-8
         2717.063     3.821671E-8
         2719.486     3.873673E-8
         2721.915     3.424642E-8
         2724.343     2.838006E-8
         2726.772     2.247138E-8
         2729.205     1.652027E-8
          2731.64     1.414222E-8
         2734.078     1.350896E-8
         2736.517     1.287134E-8
         2738.958     1.222905E-8
         2741.402     1.415043E-8
         2743.849     1.800198E-8
         2746.296     2.187769E-8
         2748.747     2.578265E-8
         2751.198     2.892627E-8
         2753.653     3.126304E-8
         2756.111     3.360529E-8
         2758.569     3.595165E-8
         2761.031     3.473372E-8
         2763.495     2.854802E-8
         2765.958     2.235523E-8
         2768.427     1.614058E-8
         2770.898     1.219587E-8
         2773.369     1.225126E-8
         2775.844     1.230680E-8
          2778.32     1.236243E-8
         2780.799     1.277808E-8
          2783.28     1.395344E-8
         2785.764     1.513158E-8
         2788.249     1.631159E-8
         2790.736     1.708485E-8
         2793.227     1.688400E-8
          2795.72     1.668270E-8
         2798.213     1.648104E-8
         2800.709     1.739609E-8
         2803.209     2.113392E-8
         2805.709     2.487775E-8
         2808.213     2.863238E-8
         2810.718     3.241787E-8
         2813.226     3.627704E-8
         2815.736     4.014223E-8
         2818.247     4.401568E-8
         2820.764     4.552271E-8
         2823.278     4.157163E-8
         2825.798     3.760723E-8
          2828.32     3.363446E-8
         2830.843     3.099657E-8
         2833.369     3.103005E-8
         2835.898     3.106358E-8
         2838.426     3.109711E-8
         2840.959     3.183183E-8
         2843.495     3.372007E-8
         2846.031     3.561101E-8
         2848.571     3.750720E-8
         2851.112     3.569354E-8
         2853.655     2.909605E-8
         2856.202     2.248159E-8
         2858.751     1.585395E-8
         2861.301     1.403806E-8
         2863.853     1.685616E-8
         2866.407     1.968004E-8
         2868.965     2.251132E-8
         2871.526     2.606067E-8
         2874.087     3.009793E-8
         2876.652     3.414596E-8
         2879.218     3.819898E-8
         2881.788     3.569660E-8
         2884.358     3.031583E-8
         2886.931     2.492437E-8
         2889.507     1.951963E-8
         2892.084     2.112608E-8
         2894.666     2.439934E-8
         2897.248     2.767707E-8
         2899.832     3.096054E-8
         2902.421     3.232759E-8
          2905.01     3.355682E-8
         2907.601     3.478379E-8
         2910.198     3.554057E-8
          2912.79     3.061613E-8
         2915.392     2.568815E-8
         2917.992     2.077523E-8
         2920.594     1.695864E-8
         2923.203     1.681961E-8
         2925.807     1.668108E-8
          2928.42     1.654238E-8
         2931.033     2.172339E-8
         2933.646     3.501074E-8
         2936.266     4.829620E-8
         2938.885     6.153869E-8
         2941.506     6.556612E-8
         2944.131     6.278278E-8
         2946.757     6.000629E-8
         2949.387     5.723332E-8
         2952.018     4.944241E-8
         2954.653     4.013772E-8
          2957.29     3.085170E-8
         2959.926     2.159559E-8
         2962.567     1.895275E-8
          2965.21     1.650742E-8
         2967.856     1.406592E-8
         2970.505     1.229007E-8
         2973.155     1.332026E-8
         2975.808     1.434883E-8
         2978.461     1.537379E-8
         2981.121     1.633181E-8
          2983.78     1.719524E-8
         2986.441     1.805666E-8
         2989.104     1.891598E-8
         2991.772     1.844521E-8
         2994.442     1.730473E-8
         2997.113     1.616732E-8
         2999.788     1.503165E-8
         3002.464     1.416728E-8
         3005.142     1.332782E-8
         3007.826     1.248914E-8
         3010.507     1.213372E-8
         3013.194     1.383791E-8
         3015.883     1.553801E-8
         3018.573     1.723290E-8
         3021.267     1.903651E-8
          3023.96     2.095906E-8
          3026.66     2.288030E-8
          3029.36     2.479444E-8
         3032.062     2.555366E-8
          3034.77     2.595476E-8
         3037.475     2.635394E-8
         3040.186     2.644054E-8
         3042.897     2.230049E-8
         3045.612     1.817032E-8
         3048.332     1.404531E-8
         3051.051     1.151424E-8
         3053.772     1.149421E-8
         3056.497     1.147413E-8
         3059.222     1.145404E-8
         3061.954     1.609760E-8
         3064.685     2.257631E-8
         3067.418     2.903829E-8
         3070.156     3.537498E-8
         3072.896     3.985393E-8
         3075.637     4.431813E-8
          3078.38     4.876955E-8
         3081.126     4.684151E-8
         3083.877     3.575380E-8
         3086.628     2.470913E-8
         3089.381     1.369580E-8
         3092.137     1.641929E-8
         3094.895     2.310148E-8
         3097.659     2.977292E-8
         3100.422     3.450238E-8
         3103.187     2.857398E-8
         3105.955     2.262278E-8
         3108.729     1.664132E-8
         3111.501     1.350131E-8
