#  Table wf4f160bwsys.tab  Mon 12:22:41 02-Jun-97

#      WAVELENGTH      THROUGHPUT
#       angstroms                

            1216.     4.130386E-4
          1217.34     4.205067E-4
         1218.682     4.280715E-4
         1220.026     4.357174E-4
         1221.371     4.421378E-4
         1222.717     4.486292E-4
         1224.065     4.552002E-4
         1225.414     4.618466E-4
         1226.765     4.685702E-4
         1228.117     4.753715E-4
         1229.471     4.822506E-4
         1230.826     4.884511E-4
         1232.183     4.942325E-4
         1233.542     5.000725E-4
         1234.901     5.059639E-4
         1236.262     5.119149E-4
         1237.625     5.179208E-4
         1238.989     5.239878E-4
         1240.355     5.298508E-4
         1241.722     5.350009E-4
         1243.091     5.401952E-4
         1244.461     5.454310E-4
         1245.833     5.507065E-4
         1247.207     5.560294E-4
         1248.582     5.613929E-4
         1249.957     5.667962E-4
         1251.335     5.714888E-4
         1252.715     5.761889E-4
         1254.095     5.809181E-4
         1255.478     5.856833E-4
         1256.862     5.904783E-4
         1258.247     5.953027E-4
         1259.634     6.001614E-4
         1261.023     6.045654E-4
         1262.413     6.088193E-4
         1263.805     6.130963E-4
         1265.198     6.173963E-4
         1266.592     6.217177E-4
         1267.989     6.260650E-4
         1269.387     6.304377E-4
         1270.786     6.345084E-4
         1272.187     6.383479E-4
         1273.588     6.422019E-4
         1274.992     6.460744E-4
         1276.399     6.499650E-4
         1277.805     6.538687E-4
         1279.214     6.577902E-4
         1280.624     6.615259E-4
         1282.035     6.650163E-4
         1283.449     6.685213E-4
         1284.864     6.720359E-4
          1286.28     6.755593E-4
         1287.698     6.790964E-4
         1289.117     6.826444E-4
         1290.538     6.860750E-4
         1291.961     6.893032E-4
         1293.385     6.925386E-4
         1294.811     6.957800E-4
         1296.238     6.990302E-4
         1297.668     7.022896E-4
         1299.098     7.055534E-4
          1300.53     7.083853E-4
         1301.963     7.104697E-4
         1303.398     7.125555E-4
         1304.835     7.146446E-4
         1306.274     7.167365E-4
         1307.713     7.188290E-4
         1309.155     7.209246E-4
         1310.597     7.229486E-4
         1312.042     7.248725E-4
         1313.489     7.267969E-4
         1314.937     7.287229E-4
         1316.386     7.306478E-4
         1317.837     7.325743E-4
          1319.29     7.345006E-4
         1320.744     7.363564E-4
           1322.2     7.381433E-4
         1323.657     7.399295E-4
         1325.117     7.417153E-4
         1326.578     7.435005E-4
         1328.039     7.452841E-4
         1329.503     7.470680E-4
         1330.969     7.487661E-4
         1332.436     7.504189E-4
         1333.905     7.520702E-4
         1335.376     7.537196E-4
         1336.847     7.553662E-4
         1338.321     7.570118E-4
         1339.796     7.586555E-4
         1341.273     7.602221E-4
         1342.752     7.617743E-4
         1344.232     7.633239E-4
         1345.713     7.648698E-4
         1347.197     7.664136E-4
         1348.682     7.679550E-4
         1350.169     7.694857E-4
         1351.657     7.709547E-4
         1353.146     7.724194E-4
         1354.638     7.738004E-4
         1356.131     7.750690E-4
         1357.627     7.763347E-4
         1359.123     7.775954E-4
         1360.621     7.788373E-4
         1362.121     7.800536E-4
         1363.622     7.812650E-4
         1365.126     7.824736E-4
          1366.63     7.836767E-4
         1368.137     7.848762E-4
         1369.645     7.860715E-4
         1371.155     7.872613E-4
         1372.667     7.884480E-4
          1374.18     7.896295E-4
         1375.694     7.908061E-4
         1377.211     7.919788E-4
         1378.729     7.931470E-4
         1380.249     7.943143E-4
         1381.771     7.954958E-4
         1383.294     7.966731E-4
         1384.818     7.978451E-4
         1386.345     7.990132E-4
         1387.874     8.001776E-4
         1389.403     8.013360E-4
         1390.935     8.025275E-4
         1392.468     8.037383E-4
         1394.002     8.049443E-4
          1395.54     8.061472E-4
         1397.078     8.073454E-4
         1398.618     8.085386E-4
          1400.16     8.095549E-4
         1401.703     8.090662E-4
         1403.248     8.085733E-4
         1404.795     8.080755E-4
         1406.343     8.075737E-4
         1407.894     8.070674E-4
         1409.446     8.065567E-4
         1410.999     8.060675E-4
         1412.555     8.055879E-4
         1414.112     8.051040E-4
          1415.67     8.046162E-4
         1417.231     8.041240E-4
         1418.793     8.036275E-4
         1420.357     8.031228E-4
         1421.923     8.026009E-4
         1423.491     8.020747E-4
         1425.059     8.015446E-4
          1426.63     8.010098E-4
         1428.203     8.004708E-4
         1429.777     7.999277E-4
         1431.354     7.993287E-4
         1432.932     7.987169E-4
          1434.51     7.981010E-4
         1436.092     7.974803E-4
         1437.676     7.968550E-4
          1439.26     7.962261E-4
         1440.847     7.955286E-4
         1442.435     7.947710E-4
         1444.024     7.940092E-4
         1445.617     7.932421E-4
          1447.21     7.924711E-4
         1448.805     7.916951E-4
         1450.402     7.908702E-4
         1452.001     7.899089E-4
         1453.602     7.889419E-4
         1455.205     7.879702E-4
         1456.808     7.869944E-4
         1458.414     7.860130E-4
         1460.022     7.850238E-4
         1461.631     7.838134E-4
         1463.243     7.825978E-4
         1464.856     7.813770E-4
          1466.47     7.801517E-4
         1468.086     7.789204E-4
         1469.706     7.776833E-4
         1471.325     7.762138E-4
         1472.947     7.746873E-4
         1474.571     7.731552E-4
         1476.196     7.716182E-4
         1477.824     7.700741E-4
         1479.453     7.685256E-4
         1481.083     7.667568E-4
         1482.716     7.648727E-4
          1484.35     7.629829E-4
         1485.987     7.610871E-4
         1487.625     7.597623E-4
         1489.264     7.593599E-4
         1490.906     7.587340E-4
         1492.549     7.579225E-4
         1494.195     7.570930E-4
         1495.842     7.562452E-4
         1497.491     7.553794E-4
         1499.142     7.544956E-4
         1500.794     7.524738E-4
         1502.449     7.492199E-4
         1504.105     7.459514E-4
         1505.763     7.426641E-4
         1507.423     7.393593E-4
         1509.084     7.360392E-4
         1510.748     7.325690E-4
         1512.414     7.289253E-4
          1514.08     7.252668E-4
         1515.749     7.215907E-4
         1517.419     7.179001E-4
         1519.093     7.141900E-4
         1520.768     7.103885E-4
         1522.444     7.064800E-4
         1524.122     7.025583E-4
         1525.802     6.986202E-4
         1527.484     6.946676E-4
         1529.168     6.907006E-4
         1530.854     6.866822E-4
          1532.54     6.826157E-4
          1534.23     6.785339E-4
         1535.921     6.744387E-4
         1537.615     6.703289E-4
          1539.31     6.662101E-4
         1541.006     6.620947E-4
         1542.705     6.579791E-4
         1544.405     6.538538E-4
         1546.109     6.486633E-4
         1547.812     6.429280E-4
         1549.518     6.372076E-4
         1551.227     6.315893E-4
         1552.936     6.260247E-4
         1554.648     6.204749E-4
         1556.363     6.149397E-4
         1558.078     6.094272E-4
         1559.795     6.039303E-4
         1561.515     5.986330E-4
         1563.235     5.933799E-4
         1564.958     5.881408E-4
         1566.685     5.829157E-4
         1568.411     5.777121E-4
          1570.14     5.725446E-4
         1571.871     5.676407E-4
         1573.603     5.627546E-4
         1575.338     5.578811E-4
         1577.075     5.530202E-4
         1578.813     5.481792E-4
         1580.553     5.434618E-4
         1582.295     5.389980E-4
         1584.039     5.345448E-4
         1585.785     5.301048E-4
         1587.534     5.256781E-4
         1589.284     5.212646E-4
         1591.036     5.171007E-4
          1592.79     5.131118E-4
         1594.545     5.091358E-4
         1596.303     5.051688E-4
         1598.062     5.012127E-4
         1599.824     4.972675E-4
         1601.588     4.929242E-4
         1603.353     4.885531E-4
          1605.12     4.841957E-4
          1606.89     4.798538E-4
         1608.661     4.755275E-4
         1610.434     4.713293E-4
          1612.21     4.674893E-4
         1613.986     4.636627E-4
         1615.765     4.598460E-4
         1617.548     4.560387E-4
          1619.33     4.522470E-4
         1621.115     4.487497E-4
         1622.902     4.454313E-4
          1624.69     4.421223E-4
         1626.482     4.388177E-4
         1628.275     4.355236E-4
         1630.069     4.322535E-4
         1631.867     4.294242E-4
         1633.665     4.266003E-4
         1635.466     4.237769E-4
         1637.269     4.209586E-4
         1639.074     4.181441E-4
          1640.88     4.155569E-4
         1642.689     4.132033E-4
           1644.5     4.108495E-4
         1646.313     4.084957E-4
         1648.128     4.061657E-4
         1649.944     4.041533E-4
         1651.763     4.025764E-4
         1653.585     4.010054E-4
         1655.407     3.994290E-4
         1657.232     3.978445E-4
         1659.058     3.962535E-4
         1660.888     3.948525E-4
         1662.719     3.936544E-4
         1664.552     3.924466E-4
         1666.386     3.912298E-4
         1668.223     3.900025E-4
         1670.062     3.887776E-4
         1671.903     3.878861E-4
         1673.746     3.869829E-4
          1675.59     3.860682E-4
         1677.437     3.851413E-4
         1679.287     3.842022E-4
         1681.139     3.834389E-4
         1682.991     3.827805E-4
         1684.847     3.821083E-4
         1686.704     3.814221E-4
         1688.563     3.807221E-4
         1690.425     3.800663E-4
         1692.287     3.795951E-4
         1694.153     3.791080E-4
         1696.021     3.786052E-4
          1697.89     3.780868E-4
         1699.762     3.775520E-4
         1701.636     3.776356E-4
         1703.512     3.777997E-4
         1705.389     3.779522E-4
         1707.269     3.780931E-4
         1709.151     3.782222E-4
         1711.035     3.784408E-4
         1712.922     3.787305E-4
         1714.809     3.790075E-4
         1716.699     3.792720E-4
         1718.592     3.795236E-4
         1720.485     3.797992E-4
         1722.383     3.801692E-4
         1724.281     3.805252E-4
         1726.182     3.808677E-4
         1728.086     3.811966E-4
          1729.99     3.815113E-4
         1731.897     3.819292E-4
         1733.806     3.823332E-4
         1735.718     3.827224E-4
          1737.63     3.830966E-4
         1739.546     3.834558E-4
         1741.463     3.838670E-4
         1743.383     3.842834E-4
         1745.305     3.846839E-4
         1747.228     3.850682E-4
         1749.154     3.854366E-4
         1751.084     3.854508E-4
         1753.013     3.851848E-4
         1754.946     3.849019E-4
          1756.88     3.846019E-4
         1758.817     3.842850E-4
         1760.756     3.839701E-4
         1762.697     3.836678E-4
         1764.639     3.833479E-4
         1766.585     3.830100E-4
         1768.532     3.826539E-4
         1770.482     3.822915E-4
         1772.434     3.819465E-4
         1774.387     3.815827E-4
         1776.343     3.812003E-4
         1778.301     3.807986E-4
         1780.262     3.803833E-4
         1782.224     3.799863E-4
         1784.189     3.795695E-4
         1786.156     3.791326E-4
         1788.124     3.786760E-4
         1790.096     3.782010E-4
         1792.068     3.777493E-4
         1794.044     3.772765E-4
         1796.022     3.767827E-4
         1798.001     3.762681E-4
         1799.984     3.757316E-4
         1801.968     3.735544E-4
         1803.954     3.713227E-4
         1805.942     3.690503E-4
         1807.933     3.667354E-4
         1809.926     3.643784E-4
         1811.922     3.620170E-4
         1813.919     3.596138E-4
         1815.918     3.571682E-4
          1817.92     3.546773E-4
         1819.925     3.521410E-4
          1821.93     3.495966E-4
         1823.938     3.470069E-4
         1825.948     3.443724E-4
         1827.962     3.416892E-4
         1829.976     3.389622E-4
         1831.995     3.362192E-4
         1834.013     3.334316E-4
         1836.035     3.305943E-4
         1838.059     3.277084E-4
         1840.084     3.247764E-4
         1842.113     3.218228E-4
         1844.144     3.188187E-4
         1846.177     3.157642E-4
         1848.212     3.126586E-4
         1850.248     3.095067E-4
         1852.288     3.063272E-4
          1854.33     3.030948E-4
         1856.375     2.998075E-4
         1858.421     2.964701E-4
         1860.469     2.930835E-4
          1862.52     2.896657E-4
         1864.573     2.861908E-4
         1866.628     2.826599E-4
         1868.686     2.790730E-4
         1870.746     2.754381E-4
         1872.808     2.717614E-4
         1874.872     2.680284E-4
         1876.939     2.642349E-4
         1879.008     2.603817E-4
         1881.079     2.562633E-4
         1883.153     2.521018E-4
         1885.229     2.478858E-4
         1887.307     2.436174E-4
         1889.387     2.392919E-4
         1891.471     2.349229E-4
         1893.555     2.305078E-4
         1895.643     2.260339E-4
         1897.732     2.215033E-4
         1899.823     2.169179E-4
         1901.919     2.149093E-4
         1904.014     2.131163E-4
         1906.113     2.112944E-4
         1908.215     2.094442E-4
         1910.317     2.075692E-4
         1912.424     2.056783E-4
         1914.532     2.037601E-4
         1916.643     2.018111E-4
         1918.755     1.998346E-4
          1920.87     1.978332E-4
         1922.988     1.958100E-4
         1925.107     1.937578E-4
          1927.23     1.916734E-4
         1929.354     1.895607E-4
         1931.481     1.874264E-4
          1933.61     1.852655E-4
          1935.74     1.830747E-4
         1937.875     1.808503E-4
         1940.011     1.785967E-4
         1942.149     1.763201E-4
          1944.29     1.740114E-4
         1946.434     1.716705E-4
          1948.58     1.692973E-4
         1950.728     1.668956E-4
         1952.878     1.644691E-4
          1955.03     1.620104E-4
         1957.185     1.595174E-4
         1959.343     1.569910E-4
         1961.503     1.544351E-4
         1963.665     1.518472E-4
         1965.829     1.492264E-4
         1967.996     1.465702E-4
         1970.167     1.438788E-4
         1972.339     1.411616E-4
         1974.512     1.384108E-4
         1976.689     1.356233E-4
         1978.868     1.328006E-4
         1981.049     1.299445E-4
         1983.233     1.270550E-4
         1985.418     1.241311E-4
         1987.607     1.211694E-4
         1989.798     1.181715E-4
         1991.992     1.147102E-4
         1994.188     1.111639E-4
         1996.386     1.075758E-4
         1998.586     1.039474E-4
         2000.789     1.009512E-4
         2002.996     9.913482E-5
         2005.203     9.729312E-5
         2007.414     9.542322E-5
         2009.627     9.352586E-5
         2011.841     9.099509E-5
          2014.06     8.830251E-5
         2016.279     8.557571E-5
         2018.502     8.281018E-5
         2020.727     8.008866E-5
         2022.955     7.749958E-5
         2025.185     7.487564E-5
         2027.417     7.221646E-5
         2029.652     6.952215E-5
         2031.889     6.722997E-5
         2034.129     6.498716E-5
         2036.371     6.271443E-5
         2038.616     6.041190E-5
         2040.864     5.828285E-5
         2043.112     5.645505E-5
         2045.365     5.460235E-5
         2047.621     5.272441E-5
         2049.877     5.082412E-5
         2052.137     4.967403E-5
         2054.399     4.855366E-5
         2056.664     4.741822E-5
         2058.931     4.626752E-5
         2061.201     4.465367E-5
         2063.472     4.261918E-5
         2065.747     4.055897E-5
         2068.024     3.847356E-5
         2070.304     3.640110E-5
         2072.586     3.455301E-5
         2074.871     3.268321E-5
         2077.157     3.079197E-5
         2079.447     2.887776E-5
          2081.74     2.761518E-5
         2084.034     2.655443E-5
         2086.332     2.548073E-5
         2088.632     2.439436E-5
         2090.933     2.304828E-5
          2093.24     2.131985E-5
         2095.546     1.957431E-5
         2097.856     1.780876E-5
         2100.169     1.606914E-5
         2102.483     1.489055E-5
         2104.802     1.369801E-5
         2107.121     1.249408E-5
         2109.444     1.127669E-5
         2111.769     1.017888E-5
         2114.097     9.111563E-6
         2116.428     8.033408E-6
          2118.76     6.944826E-6
         2121.097     6.118909E-6
         2123.434     5.597592E-6
         2125.775     5.070894E-6
         2128.118     4.539007E-6
         2130.463     4.046134E-6
         2132.813     3.727459E-6
         2135.163     3.406092E-6
         2137.518     3.081384E-6
         2139.875     2.754592E-6
         2142.231     2.547367E-6
         2144.594     2.344735E-6
         2146.958     2.140233E-6
         2149.325     1.933765E-6
         2151.693     1.780870E-6
         2154.065     1.648724E-6
          2156.44     1.515371E-6
         2158.817     1.380788E-6
         2161.197     1.269175E-6
         2163.578     1.180682E-6
         2165.964     1.091362E-6
         2168.353     1.001230E-6
         2170.743     9.199005E-7
         2173.135     8.591717E-7
         2175.529     7.979505E-7
         2177.929     7.361720E-7
         2180.329     6.767127E-7
         2182.733     6.341396E-7
         2185.138     5.912914E-7
         2187.547     5.481011E-7
         2189.959     5.045894E-7
         2192.372     4.740185E-7
         2194.789     4.434568E-7
         2197.208     4.126843E-7
         2199.632     3.816908E-7
         2202.056     3.604899E-7
         2204.482     3.406414E-7
         2206.912     3.203241E-7
         2209.345     2.995448E-7
         2211.782     2.831420E-7
         2214.219     2.681923E-7
          2216.66     2.529031E-7
         2219.104     2.372797E-7
         2221.549     2.243710E-7
         2223.998     2.129616E-7
         2226.449     2.013091E-7
         2228.904     1.894106E-7
         2231.361     1.792241E-7
          2233.82     1.704236E-7
         2236.284     1.614341E-7
         2238.748     1.522724E-7
         2241.217     1.442161E-7
         2243.687     1.373549E-7
         2246.159     1.303591E-7
         2248.636     1.232206E-7
         2251.114     1.168405E-7
         2253.597     1.114327E-7
          2256.08     1.059285E-7
         2258.567     1.003193E-7
         2261.057     9.524590E-8
         2263.548     9.095758E-8
         2266.045     8.658689E-8
         2268.542     8.214242E-8
         2271.042     7.809881E-8
         2273.546     7.466483E-8
         2276.051     7.117276E-8
         2278.562     6.761715E-8
         2281.072     6.438781E-8
         2283.588     6.162020E-8
         2286.104     5.880864E-8
         2288.623     5.595002E-8
         2291.147     5.336079E-8
         2293.672     5.111733E-8
         2296.202     4.883668E-8
         2298.732     4.653913E-8
         2301.266     4.447849E-8
         2303.803     4.266300E-8
         2306.342     4.081753E-8
         2308.885     3.893943E-8
         2311.431     3.727846E-8
