#  Table wf4f380wsys.tab  Mon 12:22:45 02-Jun-97

#      WAVELENGTH      THROUGHPUT
#       angstroms                

            1850.     1.190730E-6
         1851.651     1.005746E-6
         1853.301     8.191016E-7
         1854.956     6.302453E-7
         1856.611     4.397796E-7
         1858.267     2.474311E-7
         1859.925     5.307484E-8
         1861.584     9.192394E-8
         1863.246     1.423230E-7
         1864.909     1.932175E-7
         1866.572     2.445722E-7
         1868.237     2.964269E-7
         1869.904     3.488112E-7
         1871.573     3.672878E-7
         1873.242     3.838198E-7
         1874.913     4.005020E-7
         1876.585     4.173365E-7
          1878.26     4.343364E-7
         1879.937     4.513150E-7
         1881.613     4.028684E-7
         1883.292     3.514114E-7
         1884.973     2.994748E-7
         1886.654     2.471174E-7
         1888.338     1.942730E-7
         1890.023     1.418188E-7
         1891.709     1.503731E-7
         1893.396     1.589973E-7
         1895.086     1.676964E-7
         1896.775     1.764546E-7
         1898.469     1.852994E-7
         1900.163     1.945468E-7
         1901.857     2.070196E-7
         1903.555     2.196107E-7
         1905.254     2.323052E-7
         1906.953     2.450943E-7
         1908.655     2.579948E-7
         1910.357     2.633539E-7
         1912.061     2.398489E-7
         1913.768     2.161202E-7
         1915.476     1.921788E-7
         1917.184     1.680396E-7
         1918.894     1.436865E-7
         1920.606     1.240302E-7
          1922.32     1.132001E-7
         1924.035     1.022730E-7
         1925.752     9.125421E-8
          1927.47     8.013163E-8
         1929.189     6.891679E-8
          1930.91     6.379358E-8
         1932.634     6.416321E-8
         1934.358     6.453425E-8
         1936.084     6.490647E-8
         1937.811     6.528013E-8
          1939.54     6.565548E-8
          1941.27     7.682204E-8
         1943.003     9.201911E-8
         1944.737     1.073460E-7
          1946.47     1.227834E-7
         1948.207     1.383700E-7
         1949.947     1.540964E-7
         1951.685     1.341343E-7
         1953.427     1.128395E-7
         1955.171     9.135767E-8
         1956.913     6.971405E-8
          1958.66     4.785504E-8
         1960.408     3.001587E-8
         1962.157     2.592135E-8
         1963.908     2.178800E-8
         1965.658     1.762353E-8
         1967.413     1.341765E-8
         1969.169     9.174869E-9
         1970.925     8.354714E-9
         1972.684     1.064965E-8
         1974.444     1.296268E-8
         1976.205     1.529530E-8
         1977.969     1.765035E-8
         1979.734     2.002234E-8
           1981.5     2.684268E-8
         1983.268     3.451576E-8
         1985.037     4.224947E-8
         1986.809     5.005257E-8
         1988.581     5.791610E-8
         1990.355     6.348036E-8
         1992.131     5.958668E-8
         1993.908     5.565814E-8
         1995.688     5.168970E-8
         1997.467     4.769358E-8
          1999.25     4.365732E-8
         2001.034     4.035395E-8
         2002.818     3.758149E-8
         2004.606     3.477519E-8
         2006.396     3.194156E-8
         2008.184     2.908268E-8
         2009.976     2.619116E-8
         2011.769     2.527515E-8
         2013.565     2.437579E-8
         2015.362     2.346673E-8
         2017.158     2.254913E-8
         2018.958     2.162069E-8
          2020.76     2.265148E-8
         2022.563     2.640059E-8
         2024.368     3.018796E-8
         2026.173     3.400862E-8
         2027.982     3.786792E-8
         2029.791     4.176109E-8
         2031.602     4.421942E-8
         2033.414     4.650532E-8
         2035.228     4.881181E-8
         2037.044     5.114041E-8
         2038.861     5.348839E-8
         2040.681     5.293540E-8
         2042.502     4.746138E-8
         2044.324     4.193689E-8
         2046.147     3.635916E-8
         2047.974     3.072375E-8
           2049.8     2.503758E-8
          2051.63     2.364822E-8
         2053.461     2.278149E-8
         2055.291     2.190699E-8
         2057.125     2.102272E-8
         2058.961     2.012955E-8
         2060.798     2.082398E-8
         2062.637     2.361405E-8
         2064.477     2.642737E-8
         2066.318     2.926551E-8
         2068.164     3.213239E-8
         2070.007     3.500001E-8
         2071.855     3.283911E-8
         2073.704     3.065808E-8
         2075.553     2.845801E-8
         2077.405     2.623762E-8
         2079.259     2.399478E-8
         2081.113     2.334053E-8
         2082.971     2.375564E-8
         2084.829     2.417357E-8
         2086.688     2.459452E-8
          2088.55     2.501885E-8
         2090.414     2.573339E-8
         2092.279     2.746195E-8
         2094.145     2.920426E-8
         2096.014     3.096220E-8
         2097.885     3.273427E-8
         2099.756     3.451958E-8
          2101.63     3.568032E-8
         2103.503     3.675240E-8
         2105.381     3.783372E-8
          2107.26     3.892339E-8
         2109.139     4.002054E-8
         2111.022     4.108268E-8
         2112.906     4.211553E-8
         2114.789     4.315449E-8
         2116.677     4.420232E-8
         2118.564     4.525697E-8
         2120.455     4.565397E-8
         2122.348     4.394470E-8
         2124.241     4.222272E-8
         2126.135     4.048644E-8
         2128.033     3.873510E-8
         2129.932     3.696931E-8
         2131.832     3.614485E-8
         2133.734     3.534892E-8
         2135.637     3.454661E-8
         2137.544     3.373675E-8
          2139.45     3.292881E-8
         2141.359     3.058933E-8
          2143.27     2.760929E-8
         2145.182     2.460760E-8
         2147.096     2.158109E-8
         2149.011     1.853313E-8
         2150.929     1.619604E-8
         2152.848     1.462922E-8
         2154.768     1.305086E-8
         2156.692     1.145889E-8
         2158.615     9.858311E-9
         2160.541     9.315082E-9
         2162.469     1.152032E-8
         2164.397     1.373763E-8
          2166.33     1.597409E-8
         2168.263     1.822444E-8
         2170.196     2.034325E-8
         2172.133     2.120150E-8
          2174.07     2.206430E-8
         2176.011     2.293299E-8
         2177.953     2.380694E-8
         2179.895     2.468550E-8
          2181.84     2.427245E-8
         2183.787     2.378238E-8
         2185.735     2.328946E-8
         2187.686     2.279320E-8
         2189.637     2.229414E-8
          2191.59     2.364756E-8
         2193.546     2.543447E-8
         2195.503     2.723052E-8
         2197.462     2.903507E-8
         2199.423     3.085039E-8
         2201.385     2.952511E-8
         2203.348     2.684907E-8
         2205.315     2.412410E-8
         2207.283     2.135195E-8
         2209.252     1.853411E-8
         2211.222     1.663575E-8
         2213.196     1.530153E-8
          2215.17     1.394573E-8
         2217.147     1.256622E-8
         2219.125     1.116389E-8
         2221.104     1.010100E-8
         2223.086     9.307900E-9
         2225.071     8.501424E-9
         2227.055     7.683515E-9
         2229.042     6.851601E-9
         2231.031     7.711017E-9
         2233.021     1.017819E-8
         2235.015     1.268356E-8
         2237.008     1.522117E-8
         2239.003     1.779455E-8
         2241.002     1.954455E-8
         2242.999     2.045417E-8
         2245.002     2.137666E-8
         2247.005     2.230940E-8
         2249.009     2.325356E-8
         2251.016     2.327296E-8
         2253.024     2.237156E-8
         2255.033     2.145650E-8
         2257.046     2.052703E-8
         2259.061     1.958375E-8
         2261.075     1.885597E-8
         2263.092     1.831869E-8
         2265.112     1.777289E-8
         2267.134     1.721884E-8
         2269.156     1.665692E-8
         2271.181     1.613201E-8
         2273.207     1.563263E-8
         2275.234     1.512603E-8
         2277.266     1.461158E-8
         2279.296     1.409090E-8
          2281.33     1.526111E-8
         2283.366     1.734933E-8
         2285.402     1.945949E-8
         2287.441     2.159674E-8
         2289.483     2.375841E-8
         2291.525     2.479385E-8
          2293.57     2.544841E-8
         2295.615     2.610850E-8
         2297.663     2.678311E-8
         2299.715     2.746670E-8
         2301.765     2.807728E-8
          2303.82     2.868182E-8
         2305.876     2.929211E-8
         2307.932     2.990782E-8
         2309.992     3.052976E-8
         2312.051     3.240075E-8
         2314.116     3.430048E-8
          2316.18     3.621873E-8
         2318.246     3.815737E-8
         2320.315     3.937919E-8
         2322.385     3.647281E-8
         2324.457     3.352924E-8
         2326.531     3.055214E-8
         2328.606     2.753927E-8
         2330.685     2.525051E-8
         2332.764     2.449875E-8
         2334.845     2.373729E-8
         2336.927     2.296627E-8
         2339.012     2.218555E-8
         2341.101     2.051462E-8
         2343.188     1.803330E-8
         2345.279     1.552366E-8
         2347.372     1.298434E-8
         2349.467     1.041700E-8
         2351.562     1.192242E-8
         2353.661     1.485273E-8
         2355.759     1.780960E-8
         2357.862     2.080107E-8
         2359.966     2.382314E-8
         2362.071     2.396051E-8
         2364.179     2.405005E-8
         2366.288     2.413953E-8
         2368.398     2.422899E-8
         2370.512     2.476093E-8
         2372.628     2.668916E-8
         2374.744     2.863457E-8
         2376.863     3.059967E-8
         2378.983     3.258228E-8
         2381.105     3.476123E-8
          2383.23     3.712660E-8
         2385.357     3.951363E-8
         2387.485     4.192132E-8
         2389.615     4.435082E-8
         2391.747     4.588237E-8
         2393.881     4.722173E-8
         2396.017     4.857308E-8
         2398.154     4.993476E-8
         2400.293     5.107521E-8
         2402.435     5.075218E-8
          2404.58     5.042460E-8
         2406.724     5.009268E-8
         2408.872     4.975603E-8
         2411.022     4.851054E-8
         2413.171     4.625279E-8
         2415.326     4.396929E-8
         2417.479     4.166851E-8
         2419.637     3.934282E-8
         2421.796     4.184604E-8
         2423.957     4.535298E-8
          2426.12     4.889134E-8
         2428.284     5.245682E-8
         2430.451     5.469878E-8
         2432.619     5.177656E-8
         2434.789     4.882844E-8
         2436.962     4.585198E-8
         2439.136     4.284944E-8
         2441.312     3.818486E-8
          2443.49     3.239887E-8
          2445.67     2.656058E-8
         2447.853     2.067238E-8
         2450.036     1.488842E-8
         2452.222     1.789105E-8
         2454.409     2.091781E-8
           2456.6     2.397085E-8
         2458.792     2.704788E-8
         2460.985     2.819077E-8
          2463.18     2.693200E-8
         2465.379     2.566167E-8
         2467.579     2.438073E-8
         2469.778     2.309058E-8
         2471.983     2.265199E-8
          2474.19     2.230629E-8
         2476.396     2.195800E-8
         2478.606     2.160605E-8
         2480.817     2.186774E-8
         2483.029     2.318817E-8
         2485.247     2.452022E-8
         2487.462     2.585963E-8
         2489.682     2.721058E-8
         2491.904     2.872399E-8
         2494.125     3.027206E-8
         2496.353     3.183445E-8
         2498.579     3.340637E-8
         2500.808     3.361803E-8
          2503.04     3.140724E-8
         2505.272     2.918023E-8
         2507.509     2.693377E-8
         2509.745     2.467123E-8
         2511.985     2.647551E-8
         2514.225     2.881910E-8
         2516.468     3.118039E-8
         2518.714     3.356046E-8
         2520.962     3.417376E-8
          2523.21     3.239595E-8
         2525.462     3.060271E-8
         2527.715     2.879635E-8
         2529.971     2.697442E-8
         2532.229     2.805761E-8
         2534.486     2.918574E-8
         2536.748     3.032328E-8
          2539.01     3.141706E-8
         2541.277     3.045117E-8
         2543.545     2.788189E-8
         2545.813     2.530348E-8
         2548.084     2.271463E-8
         2550.358     2.068294E-8
         2552.635     2.169404E-8
         2554.911     2.270811E-8
         2557.191     2.372664E-8
         2559.471     2.474766E-8
         2561.755     2.574136E-8
         2564.042     2.672904E-8
         2566.329     2.771972E-8
         2568.619     2.871446E-8
         2570.908     2.896672E-8
         2573.205     2.808273E-8
           2575.5     2.719614E-8
         2577.797     2.630555E-8
         2580.097     2.538699E-8
         2582.399     2.392794E-8
         2584.704     2.246171E-8
          2587.01     2.098959E-8
         2589.318     1.951204E-8
         2591.629     2.028681E-8
          2593.94     2.201215E-8
         2596.254     2.374387E-8
         2598.573     2.548450E-8
         2600.889     2.801823E-8
          2603.21     3.183778E-8
         2605.532     3.566976E-8
         2607.856     3.951692E-8
         2610.185     4.274913E-8
         2612.512     3.862133E-8
         2614.843     3.447157E-8
         2617.177     3.030422E-8
          2619.51     2.612462E-8
         2621.849     2.677475E-8
         2624.188     2.871461E-8
         2626.528     3.066192E-8
         2628.873     3.261808E-8
         2631.217     3.272321E-8
         2633.566     3.110272E-8
         2635.916     2.947521E-8
         2638.267     2.784155E-8
          2640.62     2.648764E-8
         2642.977     2.593087E-8
         2645.334     2.537178E-8
         2647.695     2.480972E-8
         2650.057     2.420279E-8
         2652.422     2.186278E-8
         2654.788     1.951437E-8
         2657.157     1.715444E-8
         2659.526     1.478741E-8
         2661.899     1.457277E-8
         2664.275     1.489888E-8
         2666.652     1.522591E-8
         2669.031     1.555427E-8
         2671.412     1.519119E-8
         2673.796     1.434979E-8
         2676.181     1.350531E-8
          2678.57     1.265665E-8
          2680.96     1.315221E-8
          2683.35     1.565962E-8
         2685.746     1.818155E-8
          2688.14     2.070896E-8
          2690.54     2.368068E-8
         2692.941     2.815359E-8
         2695.343     3.264215E-8
         2697.748     3.715083E-8
         2700.153     4.107162E-8
         2702.563     3.614379E-8
         2704.975     3.118042E-8
         2707.387     2.618396E-8
         2709.804     2.114774E-8
         2712.222     2.250539E-8
         2714.642     2.444063E-8
         2717.063     2.638900E-8
         2719.486     2.835096E-8
         2721.915     3.027204E-8
         2724.343     3.218874E-8
         2726.772     3.411848E-8
         2729.205     3.606130E-8
          2731.64     3.356067E-8
         2734.078     2.887147E-8
         2736.517     2.415133E-8
         2738.958     1.939784E-8
         2741.402     1.666302E-8
         2743.849     1.544266E-8
         2746.296     1.421424E-8
         2748.747     1.297617E-8
         2751.198     1.243361E-8
         2753.653     1.262497E-8
         2756.111     1.281676E-8
         2758.569     1.300889E-8
         2761.031     1.304812E-8
         2763.495     1.287407E-8
         2765.958     1.269980E-8
         2768.427     1.252491E-8
         2770.898     1.295992E-8
         2773.369     1.446576E-8
         2775.844     1.597598E-8
          2778.32     1.748879E-8
         2780.799     2.075555E-8
          2783.28     2.772047E-8
         2785.764     3.470196E-8
         2788.249     4.169451E-8
         2790.736     4.566314E-8
         2793.227     4.239480E-8
          2795.72     3.911912E-8
         2798.213     3.583801E-8
         2800.709     3.452754E-8
         2803.209     3.820676E-8
         2805.709     4.189186E-8
         2808.213     4.558759E-8
         2810.718     4.847296E-8
         2813.226     4.933095E-8
         2815.736     5.019023E-8
         2818.247     5.105132E-8
         2820.764     5.250178E-8
         2823.278     5.529781E-8
         2825.798     5.810322E-8
          2828.32     6.091447E-8
         2830.843     5.900253E-8
         2833.369     4.764273E-8
         2835.898     3.625823E-8
         2838.426     2.486441E-8
         2840.959     2.128303E-8
         2843.495     3.059724E-8
         2846.031     3.992482E-8
         2848.571     4.927837E-8
         2851.112     5.141573E-8
         2853.655     4.425119E-8
         2856.202     3.706822E-8
         2858.751     2.987093E-8
         2861.301     2.832414E-8
         2863.853     3.221948E-8
         2866.407     3.612279E-8
         2868.965     4.003633E-8
         2871.526     3.991545E-8
         2874.087     3.705164E-8
         2876.652     3.418018E-8
         2879.218     3.130513E-8
         2881.788     3.199111E-8
         2884.358     3.424061E-8
         2886.931     3.649456E-8
         2889.507     3.875405E-8
         2892.084     3.946695E-8
         2894.666     3.981439E-8
         2897.248     4.016228E-8
         2899.832     4.051078E-8
         2902.421     4.417578E-8
          2905.01     4.805951E-8
         2907.601     5.193642E-8
         2910.198     5.532837E-8
          2912.79     5.286558E-8
         2915.392     5.040081E-8
         2917.992     4.794338E-8
         2920.594     4.579743E-8
         2923.203     4.469079E-8
         2925.807     4.358860E-8
          2928.42     4.248561E-8
         2931.033     4.394956E-8
         2933.646     4.932447E-8
         2936.266     5.469840E-8
         2938.885     6.005475E-8
         2941.506     5.539342E-8
         2944.131     4.332775E-8
         2946.757     3.129307E-8
         2949.387     1.927499E-8
         2952.018     1.886323E-8
         2954.653     2.196677E-8
          2957.29     2.506388E-8
         2959.926     2.815079E-8
         2962.567     3.889209E-8
          2965.21     4.982621E-8
         2967.856     6.074241E-8
         2970.505     6.927568E-8
         2973.155     6.777820E-8
         2975.808     6.628252E-8
         2978.461     6.479153E-8
         2981.121     6.237556E-8
          2983.78     5.869934E-8
         2986.441     5.503080E-8
         2989.104     5.137033E-8
         2991.772     5.211652E-8
         2994.442     5.508247E-8
         2997.113     5.803977E-8
         2999.788     6.099188E-8
         3002.464     5.016186E-8
         3005.142     3.817400E-8
         3007.826     2.619835E-8
         3010.507     1.779706E-8
         3013.194     2.452978E-8
         3015.883     3.124650E-8
         3018.573     3.794290E-8
         3021.267     4.292568E-8
          3023.96     4.597663E-8
          3026.66     4.902541E-8
          3029.36     5.206283E-8
         3032.062     5.675754E-8
          3034.77     6.196321E-8
         3037.475     6.714613E-8
         3040.186     7.155950E-8
         3042.897     6.562942E-8
         3045.612     5.971326E-8
         3048.332     5.380423E-8
         3051.051     5.186011E-8
         3053.772     5.617698E-8
         3056.497     6.048529E-8
         3059.222     6.477616E-8
         3061.954     6.417286E-8
         3064.685     6.162746E-8
         3067.418     5.908808E-8
         3070.156     5.629949E-8
         3072.896     4.931668E-8
         3075.637     4.235591E-8
          3078.38     3.541419E-8
         3081.126     3.292337E-8
         3083.877     3.681511E-8
         3086.628     4.069133E-8
         3089.381     4.455612E-8
         3092.137     4.719618E-8
         3094.895     4.947715E-8
         3097.659     5.175408E-8
         3100.422     5.515713E-8
         3103.187     6.488845E-8
         3105.955     7.465685E-8
         3108.729     8.447450E-8
         3111.501     8.417371E-8
