#  Table wf4f850lpsys.tab  Mon 12:22:54 02-Jun-97

#      WAVELENGTH      THROUGHPUT
#       angstroms                

            7900.              0.
          7901.31     1.059237E-6
         7902.616     2.113894E-6
         7903.926     3.170325E-6
         7905.237     4.225748E-6
         7906.543     5.276623E-6
         7907.854     6.329222E-6
         7909.166     7.381223E-6
         7910.472     8.427908E-6
         7911.784     9.477484E-6
         7913.096     1.052529E-5
         7914.403     1.156855E-5
         7915.716     1.261434E-5
         7917.028     1.365872E-5
         7918.336     1.469820E-5
         7919.649     1.574017E-5
         7920.958     1.677725E-5
         7922.271     1.781683E-5
         7923.585     1.885501E-5
         7924.895     1.988869E-5
         7926.208     2.092446E-5
         7927.523     2.195920E-5
         7928.833     2.298910E-5
         7930.147     2.402106E-5
         7931.462     2.505204E-5
         7932.773     2.607815E-5
         7934.088     2.710673E-5
         7935.404     2.813389E-5
         7936.711     2.915320E-5
         7938.031     3.018138E-5
         7939.347     3.120475E-5
         7940.659     3.222370E-5
         7941.976     3.324508E-5
         7943.289     3.426165E-5
         7944.605     3.528025E-5
         7945.923     3.629781E-5
          7947.24     3.731399E-5
         7948.554     3.832579E-5
         7949.867     3.933618E-5
         7951.189     4.035197E-5
         7952.503     4.136002E-5
         7953.822     4.237042E-5
         7955.137     4.337608E-5
         7956.451     4.438035E-5
         7957.775     4.539031E-5
          7959.09     4.639220E-5
          7960.41     4.739642E-5
         7961.729     4.839928E-5
         7963.041     4.939447E-5
         7964.365     5.039790E-5
         7965.686     5.139735E-5
         7967.002     5.239211E-5
         7968.323     5.338878E-5
          7969.64     5.438114E-5
         7970.961     5.537545E-5
         7972.283     5.636875E-5
         7973.605     5.736070E-5
         7974.923     5.834829E-5
         7976.241     5.933455E-5
         7977.567     6.032598E-5
         7978.886     6.130983E-5
         7980.209     6.229598E-5
         7981.532     6.328041E-5
         7982.847     6.425768E-5
          7984.17     6.524010E-5
         7985.499     6.622440E-5
         7986.818     6.720082E-5
         7988.142     6.817945E-5
         7989.458     6.915058E-5
         7990.783     7.012689E-5
         7992.112     7.110505E-5
         7993.433     7.207575E-5
         7994.758     7.304866E-5
         7996.079     7.401662E-5
         7997.401     7.498390E-5
         7998.731     7.595589E-5
         8000.057     7.692271E-5
         8001.379     7.786416E-5
         8002.702     7.880370E-5
         8004.029     7.974475E-5
         8005.355     8.068354E-5
         8006.683     8.162107E-5
         8008.011     8.255664E-5
          8009.33     8.348410E-5
         8010.658     8.441618E-5
          8011.99     8.534941E-5
         8013.314     8.627457E-5
         8014.643     8.720120E-5
         8015.967     8.812315E-5
         8017.292     8.904320E-5
         8018.625     8.996741E-5
         8019.955     9.088696E-5
         8021.276     9.179890E-5
         8022.606     9.271465E-5
         8023.937     9.362914E-5
         8025.267     9.454134E-5
         8026.597     9.545196E-5
         8027.919     9.635498E-5
          8029.25     9.726211E-5
         8030.582     9.816730E-5
         8031.913     9.907090E-5
         8033.245     9.997290E-5
         8034.573     1.008700E-4
           8035.9     1.017652E-4
         8037.233     1.026618E-4
          8038.57     1.035594E-4
         8039.898     1.044492E-4
         8041.227     1.053377E-4
          8042.56     1.062270E-4
         8043.889     1.071117E-4
         8045.228     1.080007E-4
         8046.561     1.088844E-4
         8047.887     1.097611E-4
         8049.221     1.106418E-4
         8050.556     1.115205E-4
         8051.891     1.123976E-4
         8053.226     1.132728E-4
         8054.556     1.141432E-4
         8055.887     1.150121E-4
         8057.223     1.158822E-4
         8058.563     1.167532E-4
         8059.895     1.176166E-4
         8061.227     1.184785E-4
         8062.563     1.193413E-4
         8063.896     1.201997E-4
         8065.238     1.210621E-4
         8066.575     1.219195E-4
         8067.903     1.227697E-4
         8069.241     1.236239E-4
         8070.579     1.244762E-4
         8071.913     1.253238E-4
         8073.255     1.261754E-4
         8074.585     1.270170E-4
         8075.924     1.278624E-4
         8077.263     1.287058E-4
         8078.598     1.295448E-4
         8079.942     1.303874E-4
         8081.277     1.312231E-4
         8082.613     1.320568E-4
         8083.953     1.328913E-4
         8085.293     1.337243E-4
         8086.634     1.345557E-4
          8087.97     1.353824E-4
         8089.311     1.362099E-4
         8090.648     1.370332E-4
         8091.989     1.378573E-4
         8093.331     1.386798E-4
         8094.668     1.394977E-4
         8096.011     1.403167E-4
         8097.353     1.411338E-4
         8098.691     1.419466E-4
         8100.034     1.427602E-4
         8101.377     1.435720E-4
         8102.716     1.443795E-4
          8104.06     1.451881E-4
         8105.398     1.459918E-4
         8106.743     1.467969E-4
         8108.086     1.475998E-4
         8109.431     1.484013E-4
         8110.771     1.491982E-4
         8112.116     1.499961E-4
         8113.457     1.507897E-4
         8114.802     1.515841E-4
         8116.147     1.523769E-4
         8117.488     1.531648E-4
         8118.834     1.539542E-4
         8120.181     1.547415E-4
         8121.522     1.555246E-4
         8122.869     1.563086E-4
         8124.216     1.570906E-4
         8125.559     1.578685E-4
         8126.906     1.586472E-4
         8128.253     1.594242E-4
         8129.597     1.601967E-4
         8130.944     1.609700E-4
         8132.292     1.617417E-4
         8133.636     1.625090E-4
         8134.985     1.632772E-4
          8136.33     1.640414E-4
         8137.679     1.648060E-4
         8139.028     1.655689E-4
         8140.377     1.663302E-4
         8141.723     1.670872E-4
         8143.072     1.678448E-4
         8144.418     1.685983E-4
         8145.769     1.693526E-4
         8147.119     1.701051E-4
         8148.465     1.708533E-4
         8149.816     1.716024E-4
         8151.168     1.723498E-4
         8152.515     1.730927E-4
         8153.867     1.738367E-4
         8155.219     1.745789E-4
         8156.566     1.753168E-4
         8157.918     1.760551E-4
         8159.271     1.767922E-4
          8160.62     1.775248E-4
         8161.973     1.782582E-4
         8163.326     1.789900E-4
         8164.675     1.797176E-4
         8166.029     1.804456E-4
         8167.378     1.811698E-4
         8168.732     1.818944E-4
         8170.087     1.826174E-4
         8171.441     1.833386E-4
         8172.792     1.840559E-4
         8174.147     1.847737E-4
         8175.498     1.854875E-4
         8176.854     1.862018E-4
         8178.209     1.869143E-4
         8179.565     1.876251E-4
         8180.917     1.883321E-4
         8182.273     1.890396E-4
         8183.625     1.897429E-4
         8184.982     1.904469E-4
         8186.339     1.911491E-4
         8187.697     1.918497E-4
          8189.05     1.925461E-4
         8190.408     1.932432E-4
         8191.761     1.939363E-4
         8193.119     1.946297E-4
         8194.478     1.953216E-4
         8195.827     1.960071E-4
         8197.191     1.966983E-4
          8198.55     1.973846E-4
         8199.905     1.980676E-4
         8201.265     1.987508E-4
          8202.62     1.994302E-4
         8203.979     2.001097E-4
          8205.34     2.007879E-4
         8206.701     2.014647E-4
         8208.057     2.021368E-4
         8209.413     2.028074E-4
         8210.779     2.034812E-4
         8212.136     2.041483E-4
         8213.497     2.048160E-4
         8214.859     2.054823E-4
         8216.213     2.061425E-4
         8217.575     2.068051E-4
         8218.941     2.074678E-4
           8220.3     2.081248E-4
         8221.663     2.087825E-4
         8223.018     2.094342E-4
         8224.381     2.100882E-4
         8225.749     2.107427E-4
         8227.112     2.113930E-4
         8228.472     2.120396E-4
         8229.832     2.126849E-4
         8231.196     2.133303E-4
         8232.562     2.139744E-4
         8233.927     2.146166E-4
         8235.292     2.152570E-4
         8236.647     2.158909E-4
         8238.014     2.165281E-4
          8239.38     2.171634E-4
         8240.746     2.177970E-4
         8242.112     2.184288E-4
          8243.47     2.190547E-4
         8244.836     2.196828E-4
         8246.203     2.203096E-4
          8247.57     2.209345E-4
         8248.938     2.215580E-4
         8250.297     2.221754E-4
         8251.665     2.227954E-4
         8253.037     2.234153E-4
         8254.401     2.240299E-4
          8255.77     2.246445E-4
         8257.135     2.252558E-4
         8258.499     2.258650E-4
         8259.873     2.264767E-4
         8261.242     2.270845E-4
         8262.607     2.276888E-4
         8263.973     2.282913E-4
         8265.343     2.288941E-4
         8266.718     2.294972E-4
         8268.084     2.300946E-4
          8269.45     2.306903E-4
         8270.817     2.312847E-4
         8272.188     2.318790E-4
         8273.564     2.324735E-4
         8274.932     2.330625E-4
           8276.3     2.336501E-4
         8277.672     2.342376E-4
         8279.044     2.348232E-4
         8280.417     2.354075E-4
          8281.79     2.359900E-4
         8283.153     2.365667E-4
         8284.527     2.371460E-4
           8285.9     2.377232E-4
         8287.274     2.382990E-4
         8288.648     2.388729E-4
         8290.014     2.394414E-4
         8291.389     2.400123E-4
         8292.764     2.405813E-4
         8294.139     2.411486E-4
         8295.514     2.417141E-4
         8296.885     2.422761E-4
         8298.256     2.428364E-4
         8299.631     2.433965E-4
         8301.012     2.439572E-4
         8302.384     2.445126E-4
         8303.756     2.450663E-4
         8305.133     2.456201E-4
         8306.505     2.461701E-4
         8307.887     2.467223E-4
         8309.265     2.472711E-4
         8310.638     2.719050E-4
         8312.011     3.242278E-4
         8313.389     3.766152E-4
         8314.768     4.289183E-4
         8316.146     4.810997E-4
         8317.521     5.329753E-4
         8318.895     5.847305E-4
         8320.274     6.371250E-4
         8321.658     6.917225E-4
         8323.029     7.456923E-4
         8324.409     7.998812E-4
         8325.789     8.539425E-4
         8327.165     9.077241E-4
         8328.551     9.617594E-4
         8329.927     0.001015287
         8331.304     0.001084461
         8332.685     0.001154553
         8334.066     0.001224527
         8335.443      0.00129409
         8336.825     0.001363734
         8338.203     0.001433016
         8339.586     0.001502378
         8340.969     0.001574693
         8342.352     0.001648166
          8343.73     0.001721257
         8345.113     0.001794379
         8346.493     0.001867171
         8347.877     0.001939994
         8349.261     0.002012641
         8350.646      0.00209439
         8352.025     0.002186272
         8353.405     0.002278062
          8354.79     0.002370088
         8356.176     0.002462089
         8357.562     0.002553998
         8358.942     0.002645494
         8360.328     0.002738097
         8361.715     0.002833491
         8363.097     0.002928456
         8364.483      0.00302366
          8365.87      0.00311877
         8367.252      0.00321345
          8368.64     0.003308435
         8370.022     0.003403408
          8371.41     0.003523948
         8372.799     0.003644451
         8374.187     0.003764748
          8375.57     0.003884585
         8376.959     0.004004722
         8378.344       0.0041244
         8379.732     0.004244293
         8381.122     0.004360513
         8382.512     0.004475749
         8383.897     0.004590541
         8385.287     0.004705539
         8386.673     0.004820093
         8388.063     0.004934933
         8389.454      0.00504965
         8390.841     0.005184009
         8392.231     0.005331671
         8393.623     0.005479284
         8395.011     0.005626329
         8396.402     0.005773632
         8397.795     0.005920886
         8399.188     0.006067982
         8400.575     0.006212575
         8401.963     0.006354426
         8403.356     0.006496725
          8404.75     0.006638872
         8406.144     0.006780866
         8407.532     0.006922211
         8408.927     0.007063998
         8410.316     0.007209534
         8411.711     0.007370383
         8413.105     0.007531058
           8414.5     0.007691558
         8415.891     0.007851435
         8417.286     0.008011694
         8418.677     0.008171224
         8420.073     0.008331604
         8421.469     0.008498116
          8422.86     0.008663981
         8424.258     0.008830359
         8425.654     0.008996435
         8427.047     0.009161863
         8428.443     0.009327572
         8429.841     0.009493211
         8431.239     0.009671941
         8432.632     0.009851407
          8434.03      0.01003143
         8435.424      0.01021061
         8436.823      0.01039035
         8438.222      0.01056976
         8439.616      0.01074847
         8441.016       0.0109277
          8442.41      0.01110616
         8443.811      0.01128516
          8445.21      0.01146382
          8446.61      0.01164241
         8448.007      0.01182029
         8449.407      0.01199846
         8450.804       0.0121887
         8452.205      0.01238884
         8453.606      0.01258874
         8455.008      0.01278842
         8456.405       0.0129873
         8457.803      0.01318595
         8459.205      0.01338506
         8460.607      0.01357852
          8462.01      0.01376469
         8463.404      0.01394959
         8464.808      0.01413544
         8466.216      0.01432171
         8467.614      0.01450647
         8469.019      0.01469178
         8470.418      0.01488226
         8471.817       0.0150867
         8473.228      0.01529246
         8474.627       0.0154964
         8476.032      0.01570095
         8477.434      0.01590468
         8478.839      0.01610873
         8480.245      0.01631075
          8481.65      0.01650327
         8483.057      0.01669568
         8484.454      0.01688666
         8485.861      0.01707873
         8487.272      0.01727109
         8488.676      0.01746215
         8490.083      0.01765447
         8491.485      0.01786121
         8492.889      0.01806783
         8494.302      0.01827564
          8495.71      0.01848246
         8497.114      0.01868844
         8498.519      0.01889417
         8499.928      0.01910035
         8501.337      0.01928894
         8502.746      0.01947633
         8504.156       0.0196636
         8505.557      0.01984931
         8506.967      0.02003606
         8508.378      0.02022269
         8509.788      0.02040891
         8511.199      0.02061064
         8512.602      0.02081358
         8514.013       0.0210175
         8515.429      0.02122184
         8516.836      0.02142463
         8518.244      0.02162728
         8519.651      0.02182949
         8521.064      0.02201709
         8522.481      0.02219995
          8523.89      0.02238141
         8525.299      0.02256274
         8526.712      0.02274431
         8528.126      0.02292573
          8529.54       0.0231069
         8530.954      0.02329294
         8532.364      0.02348067
         8533.774      0.02366812
         8535.188      0.02385582
         8536.608      0.02404401
          8538.02      0.02423076
         8539.431      0.02441724
         8540.842      0.02459127
         8542.258      0.02475739
         8543.679      0.02492383
         8545.091      0.02508898
         8546.503      0.02525389
          8547.92      0.02541911
         8549.337      0.02558407
         8550.755      0.02575465
         8552.173         0.02593
         8553.581      0.02610389
         8554.999       0.0262787
         8556.418      0.02645337
         8557.837      0.02662776
         8559.256      0.02680188
          8560.67      0.02696656
         8562.085      0.02712156
         8563.504      0.02727676
         8564.924       0.0274318
         8566.345      0.02758669
          8567.76       0.0277407
         8569.176      0.02789457
         8570.597      0.02804871
         8572.022      0.02820314
         8573.438      0.02835624
         8574.855      0.02850921
         8576.277      0.02866245
         8577.694      0.02881491
         8579.122      0.02896825
         8580.539      0.02911138
         8581.957      0.02923998
         8583.381      0.02936889
         8584.804      0.02949748
         8586.231      0.02962629
         8587.646      0.02975364
         8589.069      0.02988164
         8590.494       0.0300131
         8591.913      0.03015052
         8593.343      0.03028873
         8594.758      0.03042528
         8596.184      0.03056263
         8597.608      0.03069964
         8599.034       0.0308365
          8600.46      0.03096708
         8601.876      0.03108396
         8603.303      0.03120152
         8604.729      0.03131885
         8606.156      0.03143596
         8607.583      0.03155285
         8609.005      0.03166912
         8610.428      0.03178727
         8611.855      0.03191033
         8613.283      0.03203316
         8614.712      0.03215584
         8616.136      0.03227786
         8617.563      0.03239999
         8618.988      0.03252164
         8620.417       0.0326389
         8621.847      0.03274516
         8623.276      0.03285121
         8624.701      0.03295668
         8626.126      0.03306194
         8627.557      0.03316742
         8628.992      0.03327304
         8630.418       0.0333782
         8631.849      0.03348465
         8633.275      0.03359058
         8634.702       0.0336963
         8636.134      0.03380216
         8637.565       0.0339078
         8638.998      0.03401331
         8640.426       0.0341112
         8641.858      0.03419265
         8643.291       0.0342739
         8644.719      0.03435471
         8646.152      0.03443565
         8647.586      0.03451641
         8649.016      0.03459677
         8650.449      0.03468041
         8651.879      0.03477078
         8653.313      0.03486123
         8654.748      0.03495147
         8656.183      0.03504151
         8657.618      0.03513139
         8659.044      0.03522047
         8660.479      0.03530398
         8661.916      0.03537548
         8663.353      0.03544679
         8664.788      0.03551788
         8666.221      0.03558864
         8667.652      0.03565916
          8669.09      0.03572979
         8670.527      0.03580019
         8671.965      0.03587032
         8673.397      0.03594003
         8674.836      0.03600983
          8676.27      0.03607922
         8677.708      0.03614865
         8679.146       0.0362179
         8680.586      0.03628542
         8682.021      0.03635021
         8683.455      0.03641482
         8684.895      0.03647947
         8686.335      0.03654398
         8687.775      0.03660831
         8689.216      0.03667247
         8690.646      0.03673301
         8692.088      0.03679019
         8693.529      0.03684718
         8694.971      0.03690402
         8696.412      0.03696067
         8697.845      0.03701682
         8699.291      0.03707332
         8700.733      0.03712878
