#  Table wf4f569wsys.tab  Mon 12:22:50 02-Jun-97

#      WAVELENGTH      THROUGHPUT
#       angstroms                

            1850.     2.753455E-8
         1851.651     2.385638E-8
         1853.301     2.014507E-8
         1854.956     1.638967E-8
         1856.611     1.260214E-8
         1858.267     8.777059E-9
         1859.925     4.911932E-9
         1861.584     2.609443E-7
         1863.246     5.319748E-7
         1864.909     8.056771E-7
         1866.572     1.081862E-6
         1868.237     1.360742E-6
         1869.904     1.642478E-6
         1871.573     1.716948E-6
         1873.242     1.779210E-6
         1874.913     1.842026E-6
         1876.585     1.905406E-6
          1878.26     1.969397E-6
         1879.937     2.033169E-6
         1881.613     1.718264E-6
         1883.292     1.385656E-6
         1884.973     1.049971E-6
         1886.654     7.115898E-7
         1888.338     3.700854E-7
         1890.023     3.033111E-8
         1891.709     2.705216E-8
         1893.396     2.374405E-8
         1895.086     2.040500E-8
         1896.775     1.704096E-8
         1898.469     1.364135E-8
         1900.163     1.048378E-8
         1901.857     9.837490E-9
         1903.555     9.184501E-9
         1905.254     8.525584E-9
         1906.953     7.861198E-9
         1908.655     7.190464E-9
         1910.357     6.551070E-9
         1912.061     6.045537E-9
         1913.768     5.535168E-9
         1915.476     5.020200E-9
         1917.184     4.500953E-9
         1918.894     3.977080E-9
         1920.606     3.105367E-8
          1922.32     1.090518E-7
         1924.035     1.877221E-7
         1925.752     2.670273E-7
          1927.47     3.470540E-7
         1929.189     4.277191E-7
          1930.91     4.273859E-7
         1932.634     3.538979E-7
         1934.358     2.797633E-7
         1936.084     2.050277E-7
         1937.811     1.296313E-7
          1939.54     5.353424E-8
          1941.27     3.229968E-8
         1943.003     3.106674E-8
         1944.737     2.982220E-8
          1946.47     2.856761E-8
         1948.207     2.729984E-8
         1949.947     2.601963E-8
         1951.685     2.315360E-8
         1953.427     2.020853E-8
         1955.171     1.723747E-8
         1956.913     1.424390E-8
          1958.66     1.122042E-8
         1960.408     8.753624E-9
         1962.157     8.190495E-9
         1963.908     7.621894E-9
         1965.658     7.048886E-9
         1967.413     6.470051E-9
         1969.169     5.886011E-9
         1970.925     6.262202E-8
         1972.684     1.716771E-7
         1974.444     2.816015E-7
         1976.205     3.924658E-7
         1977.969     5.044054E-7
         1979.734     6.171597E-7
           1981.5     5.425823E-7
         1983.268     4.336945E-7
         1985.037     3.239206E-7
         1986.809     2.131368E-7
         1988.581     1.014699E-7
         1990.355     2.161451E-8
         1992.131     7.277072E-8
         1993.908     1.243616E-7
         1995.688     1.764529E-7
         1997.467     2.288849E-7
          1999.25     2.818205E-7
         2001.034     2.742435E-7
         2002.818     2.221814E-7
         2004.606     1.694996E-7
         2006.396     1.163202E-7
         2008.184     6.268201E-8
         2009.976     8.447008E-9
         2011.769     1.284486E-8
         2013.565     1.808434E-8
         2015.362     2.337516E-8
         2017.158     2.871068E-8
         2018.958     3.410418E-8
          2020.76     3.730698E-8
         2022.563     3.745197E-8
         2024.368     3.759730E-8
         2026.173     3.774278E-8
         2027.982     3.788863E-8
         2029.791     3.803462E-8
         2031.602     3.460250E-8
         2033.414     3.066834E-8
         2035.228     2.669540E-8
         2037.044     2.268105E-8
         2038.861     1.862997E-8
         2040.681     1.619330E-8
         2042.502     1.651701E-8
         2044.324     1.684313E-8
         2046.147     1.717183E-8
         2047.974     1.750336E-8
           2049.8     1.783731E-8
          2051.63     3.287311E-8
         2053.461     4.986035E-8
         2055.291     6.698541E-8
         2057.125     8.428790E-8
         2058.961     1.017503E-7
         2060.798     1.035910E-7
         2062.637     8.480050E-8
         2064.477     6.584692E-8
         2066.318     4.671945E-8
         2068.164     2.739165E-8
         2070.007     8.000543E-9
         2071.855     8.996970E-9
         2073.704     1.000205E-8
         2075.553     1.101528E-8
         2077.405     1.203724E-8
         2079.259     1.306890E-8
         2081.113     1.250796E-8
         2082.971     1.086976E-8
         2084.829     9.217923E-9
         2086.688     7.551522E-9
          2088.55     5.869171E-9
         2090.414     4.656845E-9
         2092.279     5.138594E-9
         2094.145     5.624232E-9
         2096.014     6.114287E-9
         2097.885     6.608339E-9
         2099.756     7.106139E-9
          2101.63     1.209980E-8
         2103.503     1.780405E-8
         2105.381     2.356142E-8
          2107.26     2.936698E-8
         2109.139     3.521634E-8
         2111.022     3.607651E-8
         2112.906     3.267895E-8
         2114.789     2.925778E-8
         2116.677     2.580404E-8
         2118.564     2.232425E-8
         2120.455     2.148870E-8
         2122.348     2.911574E-8
         2124.241     3.679532E-8
         2126.135     4.453458E-8
         2128.033     5.233677E-8
         2129.932     6.019922E-8
         2131.832     6.694144E-8
         2133.734     7.368991E-8
         2135.637     8.048625E-8
         2137.544     8.734031E-8
          2139.45     9.425601E-8
         2141.359     8.797145E-8
          2143.27     7.624392E-8
         2145.182     6.443173E-8
         2147.096     5.252242E-8
         2149.011     4.052921E-8
         2150.929     3.158668E-8
         2152.848     2.594728E-8
         2154.768     2.026674E-8
         2156.692     1.453760E-8
         2158.615     8.777865E-9
         2160.541     5.547931E-9
         2162.469     8.923134E-9
         2164.397     1.231691E-8
          2166.33     1.574012E-8
         2168.263     1.918470E-8
         2170.196     2.198887E-8
         2172.133     1.895059E-8
          2174.07     1.589515E-8
         2176.011     1.281784E-8
         2177.953     9.720892E-9
         2179.895     6.606577E-9
          2181.84     8.022542E-9
         2183.787     9.707708E-9
         2185.735     1.140181E-8
         2187.686     1.310660E-8
         2189.637     1.482018E-8
          2191.59     2.765521E-8
         2193.546     4.311519E-8
         2195.503     5.865551E-8
         2197.462     7.427062E-8
         2199.423     8.998028E-8
         2201.385     1.075178E-7
         2203.348     1.260473E-7
         2205.315     1.448825E-7
         2207.283     1.640115E-7
         2209.252     1.834235E-7
         2211.222     1.861346E-7
         2213.196     1.783723E-7
          2215.17     1.704758E-7
         2217.147     1.624326E-7
         2219.125     1.542479E-7
         2221.104     1.357924E-7
         2223.086     1.089071E-7
         2225.071     8.158683E-8
         2227.055     5.389746E-8
         2229.042     2.575206E-8
         2231.031     1.649448E-8
         2233.021     2.517178E-8
         2235.015     3.398433E-8
         2237.008     4.291112E-8
         2239.003     5.196458E-8
         2241.002     6.369525E-8
         2242.999     7.812005E-8
         2245.002     9.276773E-8
         2247.005     1.075966E-7
         2249.009     1.226252E-7
         2251.016     1.206718E-7
         2253.024     1.018108E-7
         2255.033     8.268931E-8
         2257.046     6.329199E-8
         2259.061     4.363147E-8
         2261.075     3.183761E-8
         2263.092     2.702844E-8
         2265.112     2.215178E-8
         2267.134     1.721022E-8
         2269.156     1.220712E-8
         2271.181     9.883893E-9
         2273.207     9.508407E-9
         2275.234     9.127633E-9
         2277.266     8.741080E-9
         2279.296     8.349985E-9
          2281.33     7.994075E-9
         2283.366     7.655307E-9
         2285.402     7.312395E-9
         2287.441     6.964495E-9
         2289.483     6.612042E-9
         2291.525     1.001547E-8
          2293.57     1.474474E-8
         2295.615     1.952280E-8
         2297.663     2.436850E-8
         2299.715     2.927724E-8
         2301.765     2.751522E-8
          2303.82     2.463559E-8
         2305.876     2.171988E-8
         2307.932     1.876967E-8
         2309.992     1.578095E-8
         2312.051     1.583778E-8
         2314.116     1.590640E-8
          2316.18     1.597493E-8
         2318.246     1.604346E-8
         2320.315     1.645529E-8
         2322.385     1.879335E-8
         2324.457     2.115897E-8
         2326.531     2.354922E-8
         2328.606     2.596587E-8
         2330.685     2.625292E-8
         2332.764     2.212849E-8
         2334.845     1.795603E-8
         2336.927     1.373631E-8
         2339.012     9.468634E-9
         2341.101     1.040754E-8
         2343.188     1.609944E-8
         2345.279     2.185385E-8
         2347.372     2.767376E-8
         2349.467     3.355544E-8
         2351.562     3.411359E-8
         2353.661     3.282797E-8
         2355.759     3.152906E-8
         2357.862     3.021335E-8
         2359.966     2.888256E-8
         2362.071     2.464916E-8
         2364.179     2.032028E-8
         2366.288     1.594870E-8
         2368.398     1.153125E-8
         2370.512     1.057990E-8
         2372.628     2.067571E-8
         2374.744     3.086575E-8
         2376.863     4.116331E-8
         2378.983     5.155698E-8
         2381.105     5.900165E-8
          2383.23     6.370052E-8
         2385.357     6.844277E-8
         2387.485     7.322641E-8
         2389.615     7.805372E-8
         2391.747     9.392573E-8
         2393.881     1.123723E-7
         2396.017     1.310016E-7
         2398.154     1.497905E-7
         2400.293     1.660357E-7
         2402.435     1.652209E-7
          2404.58     1.643935E-7
         2406.724     1.635540E-7
         2408.872     1.627015E-7
         2411.022     1.504561E-7
         2413.171     1.255112E-7
         2415.326     1.002929E-7
         2417.479     7.489459E-8
         2419.637     4.923221E-8
         2421.796     3.901900E-8
         2423.957     3.190248E-8
          2426.12     2.471889E-8
         2428.284     1.747694E-8
         2430.451     1.263437E-8
         2432.619     1.718420E-8
         2434.789     2.177185E-8
         2436.962     2.640111E-8
         2439.136     3.106850E-8
         2441.312     2.987321E-8
          2443.49     2.476793E-8
          2445.67     1.961658E-8
         2447.853     1.442129E-8
         2450.036     9.813919E-9
         2452.222     4.236153E-8
         2454.409     7.517429E-8
           2456.6     1.082754E-7
         2458.792     1.416401E-7
         2460.985     1.455302E-7
          2463.18     1.128367E-7
         2465.379     7.985626E-8
         2467.579     4.661331E-8
         2469.778     1.314429E-8
         2471.983     1.274801E-8
          2474.19     1.609924E-8
         2476.396     1.947066E-8
         2478.606     2.287238E-8
         2480.817     2.419467E-8
         2483.029     2.192049E-8
         2485.247     1.962505E-8
         2487.462     1.731560E-8
         2489.682     1.498498E-8
         2491.904     3.712789E-8
         2494.125     6.351320E-8
         2496.353     9.015160E-8
         2498.579     1.169622E-7
         2500.808     1.242863E-7
          2503.04     9.687814E-8
         2505.272     6.927488E-8
         2507.509     4.143646E-8
         2509.745     1.340472E-8
         2511.985     3.116215E-8
         2514.225     5.498142E-8
         2516.468     7.898525E-8
         2518.714     1.031849E-7
         2520.962     1.192726E-7
          2523.21     1.243358E-7
         2525.462     1.294387E-7
         2527.715     1.345747E-7
         2529.971     1.397506E-7
         2532.229     1.114663E-7
         2534.486     8.255509E-8
         2536.748     5.338631E-8
          2539.01     2.397347E-8
         2541.277     3.104950E-8
         2543.545     6.662055E-8
         2545.813     1.023122E-7
         2548.084     1.381430E-7
         2550.358     1.641687E-7
         2552.635     1.368682E-7
         2554.911     1.094788E-7
         2557.191     8.195988E-8
         2559.471     5.436484E-8
         2561.755     5.258338E-8
         2564.042     5.863727E-8
         2566.329     6.471093E-8
         2568.619     7.081072E-8
         2570.908     7.601000E-8
         2573.205     7.984032E-8
           2575.5     8.367942E-8
         2577.797     8.753331E-8
         2580.097     9.056679E-8
         2582.399     7.465763E-8
         2584.704     5.867264E-8
          2587.01     4.262560E-8
         2589.318     2.652188E-8
         2591.629     2.687487E-8
          2593.94     3.416535E-8
         2596.254     4.148352E-8
         2598.573     4.884011E-8
         2600.889     5.115903E-8
          2603.21     4.534527E-8
         2605.532     3.951138E-8
         2607.856     3.365315E-8
         2610.185     2.796034E-8
         2612.512     2.453477E-8
         2614.843     2.109107E-8
         2617.177     1.763288E-8
          2619.51     1.416462E-8
         2621.849     1.304307E-8
         2624.188     1.254607E-8
         2626.528     1.204689E-8
         2628.873     1.154518E-8
         2631.217     1.211329E-8
         2633.566     1.367974E-8
         2635.916     1.525237E-8
         2638.267     1.683036E-8
          2640.62     1.777416E-8
         2642.977     1.692750E-8
         2645.334     1.607761E-8
         2647.695     1.522353E-8
         2650.057     1.500966E-8
         2652.422     4.094588E-8
         2654.788     6.697137E-8
         2657.157     9.312053E-8
         2659.526     1.193444E-7
         2661.899     1.386171E-7
         2664.275     1.561947E-7
         2666.652     1.738324E-7
         2669.031     1.915499E-7
         2671.412     1.772775E-7
         2673.796     1.408836E-7
         2676.181     1.043634E-7
          2678.57     6.766890E-8
          2680.96     5.764807E-8
          2683.35     8.761138E-8
         2685.746     1.177496E-7
          2688.14     1.479546E-7
          2690.54     1.640174E-7
         2692.941     1.307335E-7
         2695.343     9.732844E-8
         2697.748     6.376880E-8
         2700.153     3.355395E-8
         2702.563     5.401227E-8
         2704.975     7.461424E-8
         2707.387     9.534967E-8
         2709.804     1.162462E-7
         2712.222     1.259419E-7
         2714.642     1.346944E-7
         2717.063     1.435058E-7
         2719.486     1.523782E-7
         2721.915     1.318031E-7
         2724.343     1.031628E-7
         2726.772     7.431655E-8
         2729.205     4.526387E-8
          2731.64     4.744022E-8
         2734.078     6.494383E-8
         2736.517     8.255971E-8
         2738.958     1.002969E-7
         2741.402     1.093633E-7
         2743.849     1.119205E-7
         2746.296     1.144919E-7
         2748.747     1.170808E-7
         2751.198     1.203561E-7
         2753.653     1.243510E-7
         2756.111     1.283551E-7
         2758.569     1.323663E-7
         2761.031     1.221587E-7
         2763.495     9.214418E-8
         2765.958     6.209534E-8
         2768.427     3.194050E-8
         2770.898     1.845634E-8
         2773.369     3.430854E-8
         2775.844     5.020689E-8
          2778.32     6.613265E-8
         2780.799     7.516208E-8
          2783.28     6.960026E-8
         2785.764     6.402517E-8
         2788.249     5.844114E-8
         2790.736     5.202545E-8
         2793.227     4.364071E-8
          2795.72     3.523721E-8
         2798.213     2.681984E-8
         2800.709     2.022040E-8
         2803.209     1.823931E-8
         2805.709     1.625499E-8
         2808.213     1.426496E-8
         2810.718     1.370704E-8
         2813.226     1.672810E-8
         2815.736     1.975387E-8
         2818.247     2.278614E-8
         2820.764     2.414845E-8
         2823.278     2.165683E-8
         2825.798     1.915682E-8
          2828.32     1.665152E-8
         2830.843     2.354497E-8
         2833.369     4.923762E-8
         2835.898     7.498602E-8
         2838.426     1.007554E-7
         2840.959     1.073385E-7
         2843.495     8.226018E-8
         2846.031     5.714577E-8
         2848.571     3.196134E-8
         2851.112     2.437686E-8
         2853.655     3.947790E-8
         2856.202     5.461770E-8
         2858.751     6.978764E-8
         2861.301     6.991471E-8
         2863.853     5.555126E-8
         2866.407     4.115833E-8
         2868.965     2.672758E-8
         2871.526     2.339685E-8
         2874.087     2.761306E-8
         2876.652     3.184052E-8
         2879.218     3.607319E-8
         2881.788     3.627016E-8
         2884.358     3.469518E-8
         2886.931     3.311707E-8
         2889.507     3.153506E-8
         2892.084     3.094202E-8
         2894.666     3.058238E-8
         2897.248     3.022224E-8
         2899.832     2.986146E-8
         2902.421     3.487095E-8
          2905.01     4.023777E-8
         2907.601     4.559530E-8
         2910.198     5.035123E-8
          2912.79     4.784378E-8
         2915.392     4.533436E-8
         2917.992     4.283245E-8
         2920.594     4.087036E-8
         2923.203     4.071901E-8
         2925.807     4.056806E-8
          2928.42     4.041683E-8
         2931.033     3.760103E-8
         2933.646     3.072484E-8
         2936.266     2.384936E-8
         2938.885     1.699583E-8
         2941.506     3.897676E-8
         2944.131     8.227007E-8
         2946.757     1.254508E-7
         2949.387     1.685706E-7
         2952.018     2.094466E-7
         2954.653     2.496100E-7
          2957.29     2.896903E-7
         2959.926     3.296389E-7
         2962.567     3.424012E-7
          2965.21     3.543442E-7
         2967.856     3.662659E-7
         2970.505     3.576640E-7
         2973.155     2.622081E-7
         2975.808     1.668923E-7
         2978.461     7.190174E-8
         2981.121     2.143502E-8
          2983.78     3.214443E-8
         2986.441     4.283012E-8
         2989.104     5.349098E-8
         2991.772     8.897629E-8
         2994.442     1.369149E-7
         2997.113     1.847188E-7
         2999.788     2.324439E-7
         3002.464     2.379388E-7
         3005.142     2.398066E-7
         3007.826     2.416706E-7
         3010.507     2.333404E-7
         3013.194     1.813057E-7
         3015.883     1.293919E-7
         3018.573     7.763260E-8
         3021.267     5.390620E-8
          3023.96     6.168405E-8
          3026.66     6.945675E-8
          3029.36     7.720093E-8
         3032.062     7.017248E-8
          3034.77     5.857181E-8
         3037.475     4.702035E-8
         3040.186     3.608488E-8
         3042.897     3.332919E-8
         3045.612     3.057994E-8
         3048.332     2.783399E-8
         3051.051     2.792855E-8
         3053.772     3.251349E-8
         3056.497     3.708956E-8
         3059.222     4.164732E-8
         3061.954     3.983934E-8
         3064.685     3.550934E-8
         3067.418     3.119013E-8
         3070.156     2.688427E-8
         3072.896     2.266329E-8
         3075.637     1.845570E-8
          3078.38     1.425968E-8
         3081.126     1.613775E-8
         3083.877     2.673737E-8
         3086.628     3.729534E-8
         3089.381     4.782282E-8
         3092.137     5.836265E-8
         3094.895     6.888440E-8
         3097.659     7.938892E-8
         3100.422     8.562724E-8
         3103.187     6.835456E-8
         3105.955     5.101549E-8
         3108.729     3.358833E-8
         3111.501     2.987744E-8
