#  Table wf4f450wsys.tab  Mon 12:22:46 02-Jun-97

#      WAVELENGTH      THROUGHPUT
#       angstroms                

            1860.     4.435235E-8
         1861.655     3.963593E-8
         1863.309     3.487684E-8
         1864.968     3.006145E-8
         1866.627     2.520042E-8
         1868.287     2.029428E-8
         1869.948     1.533961E-8
         1871.612     3.123160E-8
         1873.277     4.795401E-8
         1874.943     6.482886E-8
         1876.611     8.187921E-8
          1878.28     9.908477E-8
         1879.951     1.164221E-7
         1881.624     1.465860E-7
         1883.297     1.773699E-7
         1884.973     2.084322E-7
         1886.648     2.397146E-7
         1888.326     2.712976E-7
         1890.007     3.030651E-7
         1891.687     3.136409E-7
          1893.37     3.243122E-7
         1895.055     3.350661E-7
          1896.74     3.458966E-7
         1898.427     3.568174E-7
         1900.116     3.647828E-7
         1901.806     3.315967E-7
         1903.497     2.981157E-7
         1905.191     2.643168E-7
         1906.885     2.302405E-7
         1908.581     1.958440E-7
          1910.28     1.630173E-7
         1911.978     1.394467E-7
         1913.679     1.156532E-7
         1915.381     9.166533E-8
         1917.085     6.745307E-8
         1918.791     4.303114E-8
         1920.498     2.520808E-8
         1922.205     2.384203E-8
         1923.915     2.246167E-8
         1925.628     2.106789E-8
         1927.339     1.966415E-8
         1929.054     1.824602E-8
         1930.769     2.488788E-8
         1932.487     4.157355E-8
         1934.207     5.840351E-8
         1935.926     7.536617E-8
         1937.649     9.248364E-8
         1939.372     1.097370E-7
         1941.096     1.546113E-7
         1942.824     2.157646E-7
         1944.552     2.773650E-7
         1946.281     3.394874E-7
         1948.013     4.021775E-7
         1949.746     4.653979E-7
          1951.48     4.640805E-7
         1953.216     4.515130E-7
         1954.954     4.388235E-7
         1956.691     4.260291E-7
         1958.432     4.130961E-7
         1960.176     4.008532E-7
         1961.917     3.958704E-7
         1963.663     3.908272E-7
          1965.41     3.857297E-7
         1967.158     3.805813E-7
         1968.907     3.753778E-7
          1970.66     3.688587E-7
         1972.412     3.601953E-7
         1974.167     3.514417E-7
         1975.922     3.426148E-7
          1977.68     3.336916E-7
          1979.44     3.246771E-7
           1981.2     3.226361E-7
         1982.962     3.238703E-7
         1984.726     3.251069E-7
         1986.491     3.263445E-7
         1988.259     3.275846E-7
         1990.028     3.289370E-7
         1991.797     3.372682E-7
         1993.568     3.456607E-7
         1995.342     3.541210E-7
         1997.117     3.626436E-7
         1998.893     3.712226E-7
         2000.672     3.662771E-7
         2002.451     3.387694E-7
         2004.232     3.109602E-7
         2006.016     2.828685E-7
         2007.799     2.545087E-7
         2009.586     2.258425E-7
         2011.373     2.069723E-7
         2013.161     1.909634E-7
         2014.953     1.747703E-7
         2016.745     1.584342E-7
         2018.538     1.419321E-7
         2020.334     1.295507E-7
         2022.132     1.359210E-7
          2023.93     1.423451E-7
         2025.731     1.488311E-7
         2027.532     1.553713E-7
         2029.335     1.619700E-7
         2031.141     1.623627E-7
         2032.949     1.590776E-7
         2034.756     1.557604E-7
         2036.566     1.524065E-7
         2038.378     1.490139E-7
          2040.19     1.438762E-7
         2042.006     1.240174E-7
         2043.821     1.039802E-7
          2045.64     8.373674E-8
          2047.46     6.329940E-8
         2049.279     4.269229E-8
         2051.104     3.202508E-8
         2052.929     2.793669E-8
         2054.753     2.381410E-8
         2056.581     1.964773E-8
         2058.411     1.544180E-8
         2060.241     1.290360E-8
         2062.074     2.162021E-8
         2063.909     3.041654E-8
         2065.744     3.928704E-8
         2067.581     4.823793E-8
         2069.422     5.728041E-8
         2071.262     8.161199E-8
         2073.104     1.131641E-7
         2074.948     1.450148E-7
         2076.793     1.771273E-7
         2078.642     2.095627E-7
         2080.491     2.368062E-7
         2082.341     2.491628E-7
         2084.193     2.616303E-7
         2086.047     2.741928E-7
         2087.902     2.868589E-7
          2089.76     2.996443E-7
         2091.619     2.880280E-7
         2093.479     2.726649E-7
         2095.341     2.571558E-7
         2097.204     2.415164E-7
          2099.07     2.257296E-7
         2100.938     2.109990E-7
         2102.806     1.973364E-7
         2104.677     1.835470E-7
         2106.548     1.696499E-7
         2108.423     1.556247E-7
         2110.299     1.438198E-7
         2112.175     1.443315E-7
         2114.053     1.448444E-7
         2115.934     1.453587E-7
         2117.817     1.458744E-7
           2119.7     1.463909E-7
         2121.586     1.532456E-7
         2123.474     1.613546E-7
         2125.361     1.695125E-7
         2127.252     1.777409E-7
         2129.144     1.860282E-7
         2131.038     1.887203E-7
         2132.934     1.867484E-7
          2134.83     1.847599E-7
          2136.73     1.827525E-7
         2138.631     1.807451E-7
         2140.534     1.794829E-7
         2142.437     1.800836E-7
         2144.342     1.806858E-7
         2146.249     1.812896E-7
          2148.16     1.818957E-7
         2150.071     1.821042E-7
         2151.981     1.719149E-7
         2153.896     1.616364E-7
         2155.813     1.512814E-7
         2157.729     1.408577E-7
         2159.649     1.303488E-7
         2161.571     1.242384E-7
         2163.493     1.190896E-7
         2165.417     1.139043E-7
         2167.344     1.086764E-7
         2169.272     1.034175E-7
         2171.201     9.810800E-8
         2173.133     9.275158E-8
         2175.065     8.736438E-8
            2177.     8.193804E-8
         2178.936     7.647999E-8
         2180.875     7.097582E-8
         2182.815     6.542909E-8
         2184.755     5.985635E-8
           2186.7     5.423990E-8
         2188.645     4.859366E-8
         2190.592     4.555630E-8
         2192.539     4.856452E-8
          2194.49     5.159033E-8
         2196.441     5.463037E-8
         2198.396     5.768813E-8
         2200.352     6.082246E-8
         2202.309     6.426907E-8
         2204.267     6.776214E-8
         2206.229     7.131156E-8
         2208.191     7.490701E-8
         2210.156     7.806793E-8
         2212.121     7.554883E-8
         2214.088     7.298229E-8
         2216.059     7.036508E-8
         2218.029     6.770347E-8
         2220.002     6.499086E-8
         2221.977     5.899050E-8
         2223.953     5.289681E-8
         2225.931     4.670252E-8
         2227.912     4.041091E-8
         2229.894     3.402151E-8
         2231.876     3.071620E-8
         2233.862     2.753702E-8
         2235.849     2.430945E-8
         2237.837     2.103529E-8
         2239.828     1.770988E-8
          2241.82     2.709331E-8
         2243.814     3.782577E-8
         2245.811     4.870643E-8
         2247.809     5.973330E-8
         2249.808     7.090286E-8
         2251.808     7.893752E-8
         2253.812     8.672910E-8
         2255.817     9.461807E-8
         2257.823     1.026019E-7
         2259.831     1.106858E-7
         2261.841     1.051126E-7
         2263.854     9.818677E-8
         2265.865     9.117398E-8
         2267.883     8.405156E-8
         2269.901     7.683706E-8
         2271.918     6.952637E-8
         2273.939     6.211021E-8
         2275.962     5.459833E-8
         2277.988     4.698940E-8
         2280.013     3.931451E-8
         2282.042     3.552205E-8
         2284.071     3.168418E-8
         2286.103     2.779563E-8
         2288.136     2.386085E-8
         2290.172     2.022284E-8
         2292.209     2.033235E-8
         2294.248     2.044199E-8
         2296.288     2.055283E-8
         2298.331     2.066994E-8
         2300.376     2.078712E-8
         2302.421     2.090351E-8
          2304.47     2.102026E-8
         2306.519     2.113721E-8
          2308.57     2.125446E-8
         2310.625     2.137166E-8
         2312.681     2.148799E-8
         2314.736     2.160445E-8
         2316.796     2.172134E-8
         2318.857     2.183849E-8
         2320.919     2.397274E-8
         2322.983     2.865442E-8
         2325.049     3.339101E-8
         2327.118     3.818114E-8
         2329.187     4.302045E-8
          2331.26     4.791449E-8
         2333.334     5.285969E-8
         2335.409     5.785454E-8
         2337.485     6.290276E-8
         2339.565     6.800758E-8
         2341.648     7.316471E-8
         2343.729     7.836513E-8
         2345.814     8.362466E-8
         2347.901     8.893804E-8
         2349.989     9.430239E-8
          2352.08     1.046447E-7
         2354.171     1.151114E-7
         2356.266     1.256922E-7
         2358.361     1.363729E-7
         2360.458     1.449433E-7
          2362.56     1.456272E-7
         2364.661     1.463116E-7
         2366.764     1.469978E-7
         2368.869     1.476851E-7
         2370.977     1.483682E-7
         2373.085     1.490455E-7
         2375.196     1.497245E-7
          2377.31     1.504049E-7
         2379.422     1.510858E-7
         2381.539     1.556532E-7
          2383.66     1.617296E-7
         2385.778     1.678479E-7
         2387.901     1.740280E-7
         2390.024     1.801964E-7
          2392.15     1.809694E-7
         2394.279     1.817439E-7
         2396.409     1.825199E-7
          2398.54     1.832968E-7
         2400.673     1.805326E-7
         2402.809     1.700008E-7
         2404.947     1.593668E-7
         2407.086     1.486315E-7
         2409.225     1.378055E-7
         2411.369     1.305316E-7
         2413.514     1.252741E-7
         2415.662     1.199659E-7
          2417.81     1.146105E-7
         2419.961     1.092011E-7
         2422.113     9.216576E-8
         2424.267     7.476429E-8
         2426.425     5.718934E-8
         2428.584     3.947002E-8
         2430.742     2.574396E-8
         2432.905     1.980525E-8
         2435.069     1.381486E-8
         2437.235     7.777373E-9
         2439.403     1.685123E-9
         2441.572              0.
         2443.745              0.
         2445.917              0.
         2448.094              0.
         2450.272              0.
         2452.451              0.
         2454.631              0.
         2456.815              0.
            2459.              0.
         2461.188     3.477494E-9
         2463.378     9.924372E-9
         2465.569     1.642195E-8
          2467.76     2.296381E-8
         2469.958     2.956913E-8
         2472.154     3.621731E-8
         2474.353     4.292093E-8
         2476.553     4.967274E-8
         2478.756     5.647665E-8
         2480.961     6.623973E-8
         2483.167     7.984597E-8
         2485.378     9.357490E-8
         2487.588     1.073905E-7
         2489.801     1.213189E-7
         2492.015     1.229581E-7
         2494.231     1.233789E-7
         2496.451     1.238009E-7
          2498.67     1.242229E-7
         2500.893     1.246461E-7
         2503.118     1.250700E-7
         2505.345     1.254948E-7
         2507.573     1.259199E-7
         2509.803     1.263458E-7
         2512.036     1.332273E-7
          2514.27     1.407820E-7
         2516.507     1.483970E-7
         2518.746     1.560672E-7
         2520.985     1.637895E-7
         2523.228     1.715725E-7
         2525.472     1.794074E-7
         2527.719     1.873037E-7
         2529.967     1.952512E-7
         2532.218     1.887761E-7
         2534.471     1.820291E-7
         2536.723     1.752351E-7
          2538.98     1.681074E-7
          2541.24     1.609074E-7
           2543.5     1.536876E-7
         2545.762     1.464366E-7
         2548.027     1.391507E-7
         2550.292     1.328110E-7
         2552.562     1.330158E-7
         2554.833     1.332198E-7
         2557.106     1.334229E-7
          2559.38     1.336251E-7
         2561.655     1.282913E-7
         2563.935     1.208500E-7
         2566.216     1.133781E-7
         2568.498     1.058805E-7
         2570.781     1.009838E-7
         2573.069     1.011393E-7
         2575.358     1.012941E-7
         2577.648     1.014481E-7
         2579.942     1.016016E-7
         2582.236     1.017593E-7
         2584.533     1.019166E-7
         2586.833     1.020732E-7
         2589.135     1.022292E-7
         2591.435     1.023874E-7
         2593.741     1.025469E-7
         2596.049     1.027059E-7
         2598.357     1.028640E-7
         2600.669     1.030232E-7
         2602.981     1.031854E-7
         2605.297     1.033471E-7
         2607.614     1.035080E-7
         2609.936     1.036684E-7
         2612.256     9.602444E-8
         2614.579     8.812486E-8
         2616.906     8.018659E-8
         2619.232     7.222055E-8
         2621.564     6.966230E-8
         2623.894     6.977380E-8
         2626.229     6.988497E-8
         2628.565     6.999566E-8
         2630.904     7.010735E-8
         2633.243     7.022081E-8
         2635.585     7.033380E-8
          2637.93     7.044636E-8
         2640.275     7.153022E-8
         2642.625     7.994694E-8
         2644.976     8.839765E-8
         2647.328     9.687601E-8
         2649.683     1.053934E-7
         2652.039     1.066912E-7
         2654.399     1.068639E-7
         2656.759     1.070358E-7
         2659.123     1.072069E-7
         2661.489     1.020512E-7
         2663.854     9.373659E-8
         2666.224     8.537658E-8
         2668.598     7.697557E-8
         2670.971     6.855097E-8
         2673.346     6.009168E-8
         2675.724     5.159135E-8
         2678.104     4.306145E-8
         2680.486     3.625419E-8
          2682.87     3.631247E-8
         2685.258     3.637054E-8
         2687.645     3.642823E-8
         2690.036     3.661668E-8
         2692.429     4.542098E-8
         2694.823     5.425619E-8
         2697.221     6.313114E-8
         2699.619     7.203484E-8
         2702.021     8.108648E-8
         2704.424     9.021287E-8
         2706.829     9.940279E-8
         2709.239     1.086667E-7
         2711.648     1.056998E-7
         2714.059     9.701079E-8
         2716.474     8.825270E-8
         2718.891     7.943068E-8
         2721.308     7.548908E-8
         2723.729     7.572296E-8
         2726.153     7.595706E-8
         2728.577     7.619128E-8
         2731.003     7.642603E-8
         2733.433     7.666155E-8
         2735.865     7.689733E-8
         2738.298     7.713318E-8
         2740.733     8.020393E-8
         2743.171     8.991336E-8
         2745.612     9.968861E-8
         2748.055     1.095308E-7
         2750.499     1.193779E-7
         2752.946     1.290501E-7
         2755.394     1.387401E-7
         2757.845     1.484587E-7
         2760.299     1.570258E-7
         2762.752     1.571384E-7
          2765.21     1.572512E-7
          2767.67     1.573642E-7
         2770.131     1.574772E-7
         2772.596     1.575894E-7
         2775.063     1.577017E-7
         2777.531     1.578141E-7
            2780.     1.579256E-7
         2782.475     1.482574E-7
         2784.949     1.385776E-7
         2787.427     1.288708E-7
         2789.906     1.191475E-7
         2792.386     1.093997E-7
         2794.873     9.961742E-8
         2797.356     8.983149E-8
         2799.845     8.001110E-8
         2802.336     7.016756E-8
          2804.83     6.030321E-8
         2807.324     5.042199E-8
         2809.822     4.051320E-8
          2812.32     3.982815E-8
         2814.821     3.985340E-8
         2817.325     3.987870E-8
         2819.833     3.990404E-8
         2822.339     3.058877E-8
          2824.85     2.057440E-8
         2827.362     1.054482E-8
         2829.878    4.892810E-10
         2832.396     9.589214E-9
         2834.914     1.968174E-8
         2837.437     2.980105E-8
         2839.959     3.993543E-8
         2842.485     6.005985E-8
         2845.015     8.041119E-8
         2847.545     1.007799E-7
         2850.077     1.202593E-7
         2852.613     1.101295E-7
         2855.151     9.997937E-8
          2857.69     8.981490E-8
         2860.233     7.962315E-8
         2862.777     6.941095E-8
         2865.323     5.918368E-8
         2867.871     4.893637E-8
         2870.423     4.207393E-8
         2872.976     5.241007E-8
         2875.531     6.276095E-8
         2878.088     7.313152E-8
         2880.649     8.615265E-8
         2883.212     1.069435E-7
         2885.775     1.277618E-7
         2888.343     1.486331E-7
         2890.913     1.658424E-7
         2893.483     1.763494E-7
         2896.058     1.868828E-7
         2898.633     1.974295E-7
          2901.21     1.979955E-7
         2903.792     1.872740E-7
         2906.375     1.765715E-7
         2908.961     1.658861E-7
         2911.546     1.614726E-7
         2914.137     1.612553E-7
          2916.73     1.610376E-7
         2919.323     1.608195E-7
         2921.922     1.683176E-7
         2924.519     1.784977E-7
         2927.121     1.886698E-7
         2929.725     1.988213E-7
         2932.332     1.996385E-7
         2934.941     1.993566E-7
         2937.549     1.990744E-7
         2940.163     1.987913E-7
         2942.779     1.985079E-7
         2945.397     1.982239E-7
         2948.016     1.979394E-7
         2950.637     1.926134E-7
         2953.263     1.716035E-7
         2955.889     1.506504E-7
         2958.519     1.297271E-7
         2961.153     1.178930E-7
         2963.784     1.177179E-7
         2966.421     1.175422E-7
         2969.061     1.173662E-7
         2971.701     1.238324E-7
         2974.343     1.339504E-7
          2976.99     1.440526E-7
         2979.638     1.541314E-7
         2982.286     1.375466E-7
         2984.939     1.167623E-7
         2987.597     9.600944E-8
         2990.253     7.630752E-8
         2992.914     6.592224E-8
         2995.575     5.556629E-8
         2998.239     4.523407E-8
         3000.907     3.839999E-8
         3003.575     3.833855E-8
         3006.249     3.827692E-8
         3008.921     3.821527E-8
         3011.598     4.424906E-8
         3014.277     5.438457E-8
         3016.958     6.448860E-8
         3019.642     7.457484E-8
         3022.327     6.698951E-8
         3025.016     5.670304E-8
         3027.706     4.644652E-8
         3030.398     3.771628E-8
         3033.096     3.765284E-8
         3035.793     3.758935E-8
         3038.494     3.752571E-8
         3041.198     3.746194E-8
           3043.9     3.739813E-8
         3046.608     3.733413E-8
         3049.319     3.727000E-8
         3052.032     4.476654E-8
         3054.748     5.477375E-8
         3057.462     6.474305E-8
         3060.183     7.469851E-8
         3062.905     8.462650E-8
         3065.629     9.452247E-8
         3068.356     1.043969E-7
         3071.085     1.062654E-7
         3073.817     9.605129E-8
         3076.551     8.587100E-8
         3079.288     7.571099E-8
         3082.028     7.297565E-8
         3084.768     7.284319E-8
         3087.513     7.271040E-8
         3090.258     7.164101E-8
         3093.006     6.155555E-8
         3095.758     5.149232E-8
         3098.512     4.145689E-8
         3101.269     3.607675E-8
         3104.025     3.612965E-8
         3106.787     3.618269E-8
         3109.551     3.623580E-8
         3112.316     3.628898E-8
         3115.087     3.634232E-8
         3117.855     3.639563E-8
         3120.631     3.644913E-8
         3123.406     3.650267E-8
