#  Table wf4f622wsys.tab  Mon 12:22:50 02-Jun-97

#      WAVELENGTH      THROUGHPUT
#       angstroms                

            1850.     1.126251E-6
         1851.651     4.359577E-7
         1853.301     1.366025E-7
         1854.956     1.352214E-7
         1856.611     4.077166E-7
         1858.267     7.530639E-7
         1859.925     2.860941E-7
         1861.584     1.940685E-7
         1863.246     2.603092E-7
         1864.909     3.156918E-7
         1866.572     3.845559E-7
         1868.237     5.455722E-7
         1869.904     5.400944E-7
         1871.573     2.041618E-7
         1873.242     1.065273E-7
         1874.913     2.711854E-7
         1876.585     4.243320E-7
          1878.26     2.877838E-7
         1879.937     1.631738E-7
         1881.613     2.291452E-7
         1883.292     1.762585E-7
         1884.973     1.020566E-7
         1886.654     6.042719E-8
         1888.338     6.289626E-8
         1890.023     1.164228E-7
         1891.709     3.394120E-7
         1893.396     3.593019E-7
         1895.086     2.769417E-7
         1896.775     1.722883E-7
         1898.469     8.603944E-8
         1900.163     1.996193E-8
         1901.857     4.608399E-9
         1903.555     5.445786E-9
         1905.254     4.394441E-8
         1906.953     6.316122E-8
         1908.655     4.177498E-8
         1910.357     5.106651E-9
         1912.061     3.366279E-9
         1913.768     3.867498E-9
         1915.476     2.988701E-9
         1917.184     3.180533E-9
         1918.894     1.389645E-8
         1920.606     3.668076E-8
          1922.32     5.732008E-8
         1924.035     4.511506E-8
         1925.752     4.629721E-8
          1927.47     4.735616E-8
         1929.189     9.091192E-8
          1930.91     1.089983E-7
         1932.634     7.163671E-8
         1934.358     1.891635E-8
         1936.084     1.093290E-8
         1937.811     1.362836E-8
          1939.54     3.212374E-8
          1941.27     4.038375E-8
         1943.003     2.621747E-8
         1944.737     9.695962E-9
          1946.47     1.749090E-8
         1948.207     6.198353E-8
         1949.947     1.867191E-7
         1951.685     1.678282E-7
         1953.427     1.236925E-7
         1955.171     6.144430E-8
         1956.913     2.181829E-8
          1958.66     1.494666E-8
         1960.408     1.496634E-8
         1962.157     5.761793E-9
         1963.908     1.065059E-8
         1965.658     6.473120E-8
         1967.413     1.175800E-7
         1969.169     1.253041E-7
         1970.925     8.232665E-8
         1972.684     3.020018E-8
         1974.444     1.030163E-8
         1976.205     9.659396E-9
         1977.969     1.893828E-8
         1979.734     1.468358E-8
           1981.5     1.651240E-8
         1983.268     8.189042E-8
         1985.037     2.032100E-7
         1986.809     2.798461E-7
         1988.581     2.564242E-7
         1990.355     1.924937E-7
         1992.131     1.317235E-7
         1993.908     8.207576E-8
         1995.688     5.156517E-8
         1997.467     4.797457E-8
          1999.25     6.855059E-8
         2001.034     9.157986E-8
         2002.818     1.063706E-7
         2004.606     1.052945E-7
         2006.396     7.307994E-8
         2008.184     1.276390E-8
         2009.976     7.760982E-9
         2011.769     3.200558E-8
         2013.565     4.932100E-8
         2015.362     4.837131E-8
         2017.158     3.995148E-8
         2018.958     2.917114E-8
          2020.76     2.228258E-8
         2022.563     2.023293E-8
         2024.368     1.597448E-8
         2026.173     2.398166E-8
         2027.982     5.928230E-8
         2029.791     7.653944E-8
         2031.602     5.266578E-8
         2033.414     4.224298E-8
         2035.228     4.664008E-8
         2037.044     5.141780E-8
         2038.861     5.250953E-8
         2040.681     5.174580E-8
         2042.502     4.889505E-8
         2044.324     5.055996E-8
         2046.147     7.406135E-8
         2047.974     1.009291E-7
           2049.8     8.633274E-8
          2051.63     7.381212E-8
         2053.461     7.440939E-8
         2055.291     6.040970E-8
         2057.125     4.016118E-8
         2058.961     2.778760E-8
         2060.798     2.896485E-8
         2062.637     3.456793E-8
         2064.477     2.998688E-8
         2066.318     2.331853E-8
         2068.164     1.933596E-8
         2070.007     7.625662E-9
         2071.855     4.239333E-9
         2073.704     1.071407E-8
         2075.553     3.655716E-8
         2077.405     3.590073E-8
         2079.259     2.284980E-8
         2081.113     1.527506E-8
         2082.971     1.132965E-8
         2084.829     7.734027E-9
         2086.688     8.466634E-9
          2088.55     1.415703E-8
         2090.414     2.045973E-8
         2092.279     2.821985E-8
         2094.145     3.434454E-8
         2096.014     2.249411E-8
         2097.885     9.149013E-9
         2099.756     7.307080E-9
          2101.63     1.146524E-8
         2103.503     7.876901E-9
         2105.381     6.310081E-9
          2107.26     8.711849E-9
         2109.139     7.294934E-9
         2111.022     5.881443E-9
         2112.906     1.660700E-8
         2114.789     3.501486E-8
         2116.677     4.064564E-8
         2118.564     3.437385E-8
         2120.455     4.224600E-8
         2122.348     5.462822E-8
         2124.241     5.097694E-8
         2126.135     2.900344E-8
         2128.033     1.175388E-8
         2129.932     1.177594E-8
         2131.832     2.390414E-8
         2133.734     1.908162E-8
         2135.637     9.239865E-9
         2137.544     8.331908E-9
          2139.45     2.094226E-8
         2141.359     4.031883E-8
          2143.27     4.853247E-8
         2145.182     4.326710E-8
         2147.096     3.041264E-8
         2149.011     1.636799E-8
         2150.929     9.697901E-9
         2152.848     1.150631E-8
         2154.768     1.217258E-8
         2156.692     8.604657E-9
         2158.615     8.521110E-9
         2160.541     1.334264E-8
         2162.469     1.855385E-8
         2164.397     1.984026E-8
          2166.33     1.121675E-8
         2168.263     5.866402E-9
         2170.196     5.822594E-9
         2172.133     8.126446E-9
          2174.07     9.408936E-9
         2176.011     5.217748E-9
         2177.953     7.442723E-9
         2179.895     1.536277E-8
          2181.84     1.650708E-8
         2183.787     2.733919E-8
         2185.735     3.389436E-8
         2187.686     2.261890E-8
         2189.637     1.733737E-8
          2191.59     1.904410E-8
         2193.546     2.498169E-8
         2195.503     2.136209E-8
         2197.462     1.640579E-8
         2199.423     1.477431E-8
         2201.385     1.301503E-8
         2203.348     8.589764E-9
         2205.315     8.296333E-9
         2207.283     1.478719E-8
         2209.252     2.326031E-8
         2211.222     3.410701E-8
         2213.196     3.910031E-8
          2215.17     3.887642E-8
         2217.147     2.957339E-8
         2219.125     1.636673E-8
         2221.104     1.140443E-8
         2223.086     1.300462E-8
         2225.071     1.682936E-8
         2227.055     1.504895E-8
         2229.042     9.746936E-9
         2231.031     1.098429E-8
         2233.021     1.204026E-8
         2235.015     8.017581E-9
         2237.008     5.582259E-9
         2239.003     6.300118E-9
         2241.002     1.200151E-8
         2242.999     1.974795E-8
         2245.002     1.747943E-8
         2247.005     9.969931E-9
         2249.009     8.757788E-9
         2251.016     1.245830E-8
         2253.024     1.672099E-8
         2255.033     1.897293E-8
         2257.046     1.630773E-8
         2259.061     1.307703E-8
         2261.075     1.334323E-8
         2263.092     1.517900E-8
         2265.112     1.432434E-8
         2267.134     1.225885E-8
         2269.156     9.739692E-9
         2271.181     6.901513E-9
         2273.207     8.053596E-9
         2275.234     1.351967E-8
         2277.266     2.027820E-8
         2279.296     2.457734E-8
          2281.33     2.598677E-8
         2283.366     1.914771E-8
         2285.402     1.083459E-8
         2287.441     1.114520E-8
         2289.483     2.463422E-8
         2291.525     4.371173E-8
          2293.57     4.865496E-8
         2295.615     3.715642E-8
         2297.663     2.754440E-8
         2299.715     2.071840E-8
         2301.765     1.177660E-8
          2303.82     7.758109E-9
         2305.876     1.022276E-8
         2307.932     1.343516E-8
         2309.992     1.316798E-8
         2312.051     1.864993E-8
         2314.116     2.475757E-8
          2316.18     1.705946E-8
         2318.246     1.627222E-8
         2320.315     2.907768E-8
         2322.385     3.808857E-8
         2324.457     3.076257E-8
         2326.531     1.479777E-8
         2328.606     9.264515E-9
         2330.685     7.811613E-9
         2332.764     7.088560E-9
         2334.845     7.125025E-9
         2336.927     8.029961E-9
         2339.012     9.164897E-9
         2341.101     8.160723E-9
         2343.188     7.270962E-9
         2345.279     7.307329E-9
         2347.372     7.343797E-9
         2349.467     7.380343E-9
         2351.562     7.416502E-9
         2353.661     7.452615E-9
         2355.759     7.488755E-9
         2357.862     7.525021E-9
         2359.966     7.561360E-9
         2362.071     7.597134E-9
         2364.179     7.786353E-9
         2366.288     1.087068E-8
         2368.398     2.265325E-8
         2370.512     3.259067E-8
         2372.628     2.219873E-8
         2374.744     1.097666E-8
         2376.863     2.220630E-8
         2378.983     4.751958E-8
         2381.105     5.441824E-8
          2383.23     4.708165E-8
         2385.357     4.457020E-8
         2387.485     4.641562E-8
         2389.615     5.019909E-8
         2391.747     5.067437E-8
         2393.881     5.131041E-8
         2396.017     6.597020E-8
         2398.154     8.362763E-8
         2400.293     7.033660E-8
         2402.435     5.501628E-8
          2404.58     5.910589E-8
         2406.724     6.171193E-8
         2408.872     6.205617E-8
         2411.022     7.173538E-8
         2413.171     7.964948E-8
         2415.326     7.290301E-8
         2417.479     6.063157E-8
         2419.637     4.856145E-8
         2421.796     5.064036E-8
         2423.957     4.857343E-8
          2426.12     3.658051E-8
         2428.284     3.483381E-8
         2430.451     4.211036E-8
         2432.619     4.935220E-8
         2434.789     5.804769E-8
         2436.962     6.410500E-8
         2439.136     5.642678E-8
         2441.312     5.021589E-8
          2443.49     5.070245E-8
          2445.67     4.334882E-8
         2447.853     3.027045E-8
         2450.036     2.256140E-8
         2452.222     2.978220E-8
         2454.409     3.241790E-8
           2456.6     2.091513E-8
         2458.792     1.652432E-8
         2460.985     1.476662E-8
          2463.18     1.215298E-8
         2465.379     1.104154E-8
         2467.579     1.259435E-8
         2469.778     2.161115E-8
         2471.983     2.038840E-8
          2474.19     1.322763E-8
         2476.396     9.462583E-9
         2478.606     1.077750E-8
         2480.817     2.169374E-8
         2483.029     4.103738E-8
         2485.247     4.239990E-8
         2487.462     2.999888E-8
         2489.682     2.017473E-8
         2491.904     2.227800E-8
         2494.125     1.953817E-8
         2496.353     1.648302E-8
         2498.579     2.571148E-8
         2500.808     2.643516E-8
          2503.04     3.373112E-8
         2505.272     5.028701E-8
         2507.509     5.148067E-8
         2509.745     5.122703E-8
         2511.985     5.783280E-8
         2514.225     5.692349E-8
         2516.468     4.030984E-8
         2518.714     3.091565E-8
         2520.962     3.685793E-8
          2523.21     3.580501E-8
         2525.462     2.349893E-8
         2527.715     1.822507E-8
         2529.971     1.605274E-8
         2532.229     1.695031E-8
         2534.486     3.309925E-8
         2536.748     3.510493E-8
          2539.01     3.190210E-8
         2541.277     3.087936E-8
         2543.545     1.560307E-8
         2545.813     1.050324E-8
         2548.084     1.044813E-8
         2550.358     1.461938E-8
         2552.635     3.295084E-8
         2554.911     4.308520E-8
         2557.191     3.552389E-8
         2559.471     3.225773E-8
         2561.755     2.851198E-8
         2564.042     2.044577E-8
         2566.329     2.604027E-8
         2568.619     2.182713E-8
         2570.908     1.741646E-8
         2573.205     2.248493E-8
           2575.5     3.445506E-8
         2577.797     3.578626E-8
         2580.097     3.931276E-8
         2582.399     5.087235E-8
         2584.704     4.541900E-8
          2587.01     3.878101E-8
         2589.318     4.794263E-8
         2591.629     5.768708E-8
          2593.94     4.721401E-8
         2596.254     4.801420E-8
         2598.573     5.470575E-8
         2600.889     5.727665E-8
          2603.21     5.385569E-8
         2605.532     4.034715E-8
         2607.856     3.632082E-8
         2610.185     4.788332E-8
         2612.512     5.405776E-8
         2614.843     4.765784E-8
         2617.177     3.426702E-8
          2619.51     3.135826E-8
         2621.849     3.614435E-8
         2624.188     4.917885E-8
         2626.528     4.729814E-8
         2628.873     3.896233E-8
         2631.217     3.398132E-8
         2633.566     3.721058E-8
         2635.916     3.306056E-8
         2638.267     2.016922E-8
          2640.62     1.557948E-8
         2642.977     2.116276E-8
         2645.334     2.980576E-8
         2647.695     3.654909E-8
         2650.057     4.246023E-8
         2652.422     3.548413E-8
         2654.788     2.682993E-8
         2657.157     2.878553E-8
         2659.526     2.463563E-8
         2661.899     2.466994E-8
         2664.275     3.503037E-8
         2666.652     4.397821E-8
         2669.031     4.959723E-8
         2671.412     4.823349E-8
         2673.796     5.134745E-8
         2676.181     4.961597E-8
          2678.57     2.707095E-8
          2680.96     2.702080E-8
          2683.35     3.956429E-8
         2685.746     4.927367E-8
          2688.14     4.773952E-8
          2690.54     5.346733E-8
         2692.941     6.138033E-8
         2695.343     3.598507E-8
         2697.748     2.229139E-8
         2700.153     2.408816E-8
         2702.563     1.908080E-8
         2704.975     2.029019E-8
         2707.387     3.176562E-8
         2709.804     4.691095E-8
         2712.222     6.446430E-8
         2714.642     6.632349E-8
         2717.063     5.410129E-8
         2719.486     4.068811E-8
         2721.915     2.561963E-8
         2724.343     5.255204E-8
         2726.772     7.303817E-8
         2729.205     5.150412E-8
          2731.64     3.952252E-8
         2734.078     5.143507E-8
         2736.517     4.529501E-8
         2738.958     3.081080E-8
         2741.402     3.136936E-8
         2743.849     3.110335E-8
         2746.296     3.552630E-8
         2748.747     2.923334E-8
         2751.198     2.680809E-8
         2753.653     4.323696E-8
         2756.111     3.117349E-8
         2758.569     3.243032E-8
         2761.031     4.780824E-8
         2763.495     5.359369E-8
         2765.958     6.446987E-8
         2768.427     5.670975E-8
         2770.898     3.199928E-8
         2773.369     3.657748E-8
         2775.844     7.173404E-8
          2778.32     6.623335E-8
         2780.799     4.623064E-8
          2783.28     4.917032E-8
         2785.764     6.442784E-8
         2788.249     6.865147E-8
         2790.736     7.530451E-8
         2793.227     7.347262E-8
          2795.72     6.513381E-8
         2798.213     6.598891E-8
         2800.709     5.860387E-8
         2803.209     5.120622E-8
         2805.709     5.297023E-8
         2808.213     4.608597E-8
         2810.718     5.178880E-8
         2813.226     3.929343E-8
         2815.736     3.275576E-8
         2818.247     3.151354E-8
         2820.764     5.606820E-8
         2823.278     8.527004E-8
         2825.798     8.550236E-8
          2828.32     7.562335E-8
         2830.843     7.720497E-8
         2833.369     9.469156E-8
         2835.898     8.412536E-8
         2838.426     6.094162E-8
         2840.959     3.859282E-8
         2843.495     3.331830E-8
         2846.031     4.157167E-8
         2848.571     5.832095E-8
         2851.112     5.768601E-8
         2853.655     5.010405E-8
         2856.202     6.930466E-8
         2858.751     7.515039E-8
         2861.301     5.757815E-8
         2863.853     3.484700E-8
         2866.407     3.661372E-8
         2868.965     6.289389E-8
         2871.526     6.815311E-8
         2874.087     5.944423E-8
         2876.652     5.292396E-8
         2879.218     4.847372E-8
         2881.788     6.585404E-8
         2884.358     6.820971E-8
         2886.931     5.932266E-8
         2889.507     5.996667E-8
         2892.084     6.171520E-8
         2894.666     6.570045E-8
         2897.248     7.039782E-8
         2899.832     8.612073E-8
         2902.421     6.516136E-8
          2905.01     4.286203E-8
         2907.601     4.789019E-8
         2910.198     6.477907E-8
          2912.79     6.657585E-8
         2915.392     8.534281E-8
         2917.992     8.872139E-8
         2920.594     6.008597E-8
         2923.203     4.617128E-8
         2925.807     5.163515E-8
          2928.42     4.810328E-8
         2931.033     4.173899E-8
         2933.646     3.686225E-8
         2936.266     4.971843E-8
         2938.885     6.652599E-8
         2941.506     7.184342E-8
         2944.131     7.395119E-8
         2946.757     6.055397E-8
         2949.387     5.115568E-8
         2952.018     4.267520E-8
         2954.653     3.667674E-8
          2957.29     3.462189E-8
         2959.926     2.446941E-8
         2962.567     4.091896E-8
          2965.21     4.123375E-8
         2967.856     3.345795E-8
         2970.505     1.710451E-8
         2973.155     1.223028E-8
         2975.808     1.497682E-8
         2978.461     2.365889E-8
         2981.121     5.353217E-8
          2983.78     5.393104E-8
         2986.441     2.804118E-8
         2989.104     2.974298E-8
         2991.772     3.533384E-8
         2994.442     3.009445E-8
         2997.113     3.375294E-8
         2999.788     4.947621E-8
         3002.464     5.324438E-8
         3005.142     5.702007E-8
         3007.826     4.572894E-8
         3010.507     2.941822E-8
         3013.194     2.283855E-8
         3015.883     2.527504E-8
         3018.573     3.051460E-8
         3021.267     3.918184E-8
          3023.96     5.764601E-8
          3026.66     5.401472E-8
          3029.36     3.798948E-8
         3032.062     7.514436E-8
          3034.77     7.651541E-8
         3037.475     4.359923E-8
         3040.186     2.592486E-8
         3042.897     2.217972E-8
         3045.612     2.412144E-8
         3048.332     1.922824E-8
         3051.051     1.396997E-8
         3053.772     3.006112E-8
         3056.497     5.056767E-8
         3059.222     2.706356E-8
         3061.954     1.208972E-8
         3064.685     2.033023E-8
         3067.418     2.824716E-8
         3070.156     1.530063E-8
         3072.896     1.603993E-8
         3075.637     3.396876E-8
          3078.38     3.272383E-8
         3081.126     2.035422E-8
         3083.877     1.909065E-8
         3086.628     2.226840E-8
         3089.381     2.662699E-8
         3092.137     2.688870E-8
         3094.895     2.777518E-8
         3097.659     3.241666E-8
         3100.422     1.507403E-8
         3103.187     1.929032E-8
         3105.955     5.267934E-8
         3108.729     5.551083E-8
         3111.501     2.732946E-8
