#  Table crwfpc2comp$wfpc2_f814w_004.tab  Thu 08:19:11 15-May-97

# WAVELENGTH   THROUGHPUT        error
#  ANGSTROMS TRANSMISSION TRANSMISSION

      6870.0    0.0000000           0.
      6880.0    0.0013606           0.
      6890.0    0.0018718           0.
      6920.0    0.0036831           0.
      6922.0     0.003932           0.
      6924.0    0.0042414           0.
      6926.0    0.0045489           0.
      6928.0    0.0048939           0.
      6930.0    0.0052196           0.
      6932.0    0.0055838           0.
      6934.0    0.0060056           0.
      6936.0    0.0064275           0.
      6938.0    0.0068685           0.
      6940.0     0.007349           0.
      6942.0    0.0078861           0.
      6944.0     0.008405           0.
      6946.0    0.0089786           0.
      6948.0     0.009609           0.
      6950.0     0.010243           0.
      6952.0     0.010973           0.
      6954.0     0.011704           0.
      6956.0     0.012472           0.
      6958.0     0.013328           0.
      6960.0     0.014212           0.
      6962.0     0.015153           0.
      6964.0      0.01621           0.
      6966.0     0.017277           0.
      6968.0     0.018468           0.
      6970.0      0.01966           0.
      6972.0     0.020967           0.
      6974.0     0.022322           0.
      6976.0     0.023801           0.
      6978.0     0.025358           0.
      6980.0      0.02704           0.
      6982.0     0.028817           0.
      6984.0     0.030701           0.
      6986.0     0.032738           0.
      6988.0     0.034842           0.
      6990.0     0.037072           0.
      6992.0     0.039483           0.
      6994.0     0.041991           0.
      6996.0     0.044663           0.
      6998.0     0.047478           0.
      7000.0     0.050543           0.
      7002.0      0.05382           0.
      7004.0     0.057289           0.
      7006.0     0.060969           0.
      7008.0     0.064938           0.
      7010.0      0.06906           0.
      7012.0     0.073374           0.
      7014.0     0.077977           0.
      7016.0     0.082964           0.
      7018.0     0.088211           0.
      7020.0     0.093813           0.
      7022.0     0.099741           0.
      7024.0      0.10589           0.
      7026.0      0.11252           0.
      7028.0      0.11973           0.
      7030.0      0.12713           0.
      7032.0      0.13501           0.
      7034.0      0.14327           0.
      7036.0      0.15201           0.
      7038.0      0.16124           0.
      7040.0      0.17094           0.
      7042.0      0.18132           0.
      7044.0      0.19208           0.
      7046.0      0.20323           0.
      7048.0      0.21486           0.
      7050.0      0.22696           0.
      7052.0      0.23974           0.
      7054.0        0.253           0.
      7056.0      0.26694           0.
      7058.0      0.28135           0.
      7060.0      0.29625           0.
      7062.0      0.31152           0.
      7064.0      0.32709           0.
      7066.0      0.34333           0.
      7068.0      0.35995           0.
      7070.0      0.37686           0.
      7072.0      0.39426           0.
      7074.0      0.41223           0.
      7076.0      0.43039           0.
      7078.0      0.44855           0.
      7080.0      0.46681           0.
      7082.0      0.48535           0.
      7084.0      0.50409           0.
      7086.0      0.52283           0.
      7088.0      0.54108           0.
      7090.0      0.55953           0.
      7092.0       0.5775           0.
      7094.0      0.59509           0.
      7096.0      0.61229           0.
      7098.0      0.62939           0.
      7100.0      0.64582           0.
      7102.0      0.66187           0.
      7104.0      0.67724           0.
      7106.0      0.69194           0.
      7108.0      0.70607           0.
      7110.0      0.71952           0.
      7112.0      0.73221           0.
      7114.0      0.74374           0.
      7116.0      0.75517           0.
      7118.0      0.76584           0.
      7120.0      0.77602           0.
      7122.0      0.78573           0.
      7124.0      0.79438           0.
      7126.0      0.80274           0.
      7128.0      0.81042           0.
      7130.0      0.81744           0.
      7132.0      0.82388           0.
      7134.0      0.82993           0.
      7136.0       0.8356           0.
      7138.0       0.8404           0.
      7140.0      0.84502           0.
      7142.0      0.84895           0.
      7144.0       0.8528           0.
      7146.0      0.85597           0.
      7148.0      0.85914           0.
      7150.0      0.86202           0.
      7152.0      0.86462           0.
      7154.0      0.86683           0.
      7156.0      0.86885           0.
      7158.0      0.87106           0.
      7160.0      0.87288           0.
      7162.0      0.87442           0.
      7164.0      0.87576           0.
      7166.0      0.87711           0.
      7168.0      0.87826           0.
      7170.0       0.8797           0.
      7172.0      0.88086           0.
      7174.0      0.88191           0.
      7176.0      0.88307           0.
      7178.0      0.88422           0.
      7180.0      0.88508           0.
      7182.0      0.88585           0.
      7184.0      0.88681           0.
      7186.0      0.88778           0.
      7188.0      0.88845           0.
      7190.0      0.88941           0.
      7192.0      0.89037           0.
      7194.0      0.89123           0.
      7196.0      0.89239           0.
      7198.0      0.89344           0.
      7200.0       0.8945           0.
      7202.0      0.89565           0.
      7204.0      0.89671           0.
      7206.0      0.89786           0.
      7208.0      0.89883           0.
      7210.0      0.89988           0.
      7212.0      0.90075           0.
      7214.0       0.9019           0.
      7216.0      0.90305           0.
      7218.0      0.90392           0.
      7220.0      0.90498           0.
      7222.0      0.90613           0.
      7224.0      0.90719           0.
      7226.0      0.90853           0.
      7228.0      0.90988           0.
      7230.0      0.91093           0.
      7232.0      0.91209           0.
      7234.0      0.91305           0.
      7236.0       0.9141           0.
      7238.0      0.91535           0.
      7240.0      0.91651           0.
      7242.0      0.91756           0.
      7244.0      0.91852           0.
      7246.0      0.91958           0.
      7248.0      0.92045           0.
      7250.0      0.92112           0.
      7252.0      0.92208           0.
      7254.0      0.92304           0.
      7256.0      0.92391           0.
      7258.0      0.92467           0.
      7260.0      0.92573           0.
      7262.0      0.92631           0.
      7264.0      0.92708           0.
      7266.0      0.92784           0.
      7268.0      0.92823           0.
      7270.0      0.92871           0.
      7272.0      0.92938           0.
      7274.0      0.93005           0.
      7276.0      0.93025           0.
      7278.0      0.93054           0.
      7280.0      0.93082           0.
      7282.0       0.9313           0.
      7284.0      0.93159           0.
      7286.0      0.93178           0.
      7288.0      0.93207           0.
      7290.0      0.93226           0.
      7292.0      0.93207           0.
      7294.0      0.93188           0.
      7296.0      0.93188           0.
      7298.0       0.9315           0.
      7300.0      0.93111           0.
      7302.0      0.93111           0.
      7304.0      0.93102           0.
      7306.0      0.93082           0.
      7308.0      0.93063           0.
      7310.0      0.92996           0.
      7312.0      0.92957           0.
      7314.0        0.929           0.
      7316.0      0.92833           0.
      7318.0      0.92804           0.
      7320.0      0.92746           0.
      7322.0      0.92698           0.
      7324.0      0.92621           0.
      7326.0      0.92544           0.
      7328.0      0.92467           0.
      7330.0      0.92429           0.
      7332.0      0.92362           0.
      7334.0      0.92294           0.
      7336.0      0.92208           0.
      7338.0      0.92102           0.
      7340.0      0.91987           0.
      7342.0        0.919           0.
      7344.0      0.91824           0.
      7346.0      0.91756           0.
      7348.0      0.91699           0.
      7350.0      0.91612           0.
      7352.0      0.91535           0.
      7354.0      0.91449           0.
      7356.0      0.91343           0.
      7358.0      0.91257           0.
      7360.0       0.9117           0.
      7362.0      0.91064           0.
      7364.0      0.90978           0.
      7366.0      0.90882           0.
      7368.0      0.90767           0.
      7370.0      0.90671           0.
      7372.0      0.90603           0.
      7374.0      0.90526           0.
      7376.0       0.9043           0.
      7378.0      0.90382           0.
      7380.0      0.90277           0.
      7382.0      0.90209           0.
      7384.0      0.90132           0.
      7386.0      0.90065           0.
      7388.0      0.89979           0.
      7390.0      0.89911           0.
      7392.0      0.89825           0.
      7394.0      0.89748           0.
      7396.0      0.89671           0.
      7398.0      0.89614           0.
      7400.0      0.89527           0.
      7402.0      0.89479           0.
      7404.0      0.89421           0.
      7406.0      0.89373           0.
      7408.0      0.89335           0.
      7410.0      0.89258           0.
      7412.0       0.8921           0.
      7414.0      0.89152           0.
      7416.0      0.89095           0.
      7418.0      0.89027           0.
      7420.0      0.88989           0.
      7422.0       0.8897           0.
      7424.0       0.8895           0.
      7426.0      0.88902           0.
      7428.0      0.88883           0.
      7430.0      0.88835           0.
      7432.0      0.88816           0.
      7434.0      0.88787           0.
      7436.0      0.88778           0.
      7438.0      0.88768           0.
      7440.0      0.88758           0.
      7442.0      0.88749           0.
      7444.0      0.88739           0.
      7446.0       0.8871           0.
      7448.0       0.8871           0.
      7450.0       0.8872           0.
      7452.0      0.88701           0.
      7454.0      0.88729           0.
      7456.0      0.88739           0.
      7458.0      0.88729           0.
      7460.0      0.88739           0.
      7462.0      0.88739           0.
      7464.0      0.88749           0.
      7466.0      0.88768           0.
      7468.0      0.88797           0.
      7470.0      0.88816           0.
      7472.0      0.88835           0.
      7474.0      0.88874           0.
      7476.0      0.88902           0.
      7478.0      0.88922           0.
      7480.0       0.8895           0.
      7482.0      0.89008           0.
      7484.0      0.89047           0.
      7486.0      0.89066           0.
      7488.0      0.89133           0.
      7490.0      0.89181           0.
      7492.0       0.8922           0.
      7494.0      0.89258           0.
      7496.0      0.89287           0.
      7498.0      0.89306           0.
      7500.0      0.89364           0.
      7502.0      0.89392           0.
      7504.0       0.8945           0.
      7506.0      0.89527           0.
      7508.0      0.89556           0.
      7510.0      0.89623           0.
      7512.0       0.8969           0.
      7514.0      0.89758           0.
      7516.0      0.89806           0.
      7518.0      0.89873           0.
      7520.0      0.89911           0.
      7522.0      0.89979           0.
      7524.0      0.90065           0.
      7526.0      0.90132           0.
      7528.0       0.9019           0.
      7530.0      0.90267           0.
      7532.0      0.90325           0.
      7534.0      0.90382           0.
      7536.0      0.90421           0.
      7538.0      0.90469           0.
      7540.0      0.90488           0.
      7542.0      0.90555           0.
      7544.0      0.90613           0.
      7546.0      0.90671           0.
      7548.0      0.90747           0.
      7550.0      0.90834           0.
      7552.0      0.90882           0.
      7554.0      0.90949           0.
      7556.0      0.91055           0.
      7558.0      0.91103           0.
      7560.0      0.91151           0.
      7562.0      0.91237           0.
      7564.0      0.91285           0.
      7566.0      0.91343           0.
      7568.0      0.91401           0.
      7570.0      0.91487           0.
      7572.0      0.91593           0.
      7574.0       0.9166           0.
      7576.0      0.91718           0.
      7578.0      0.91718           0.
      7580.0      0.91776           0.
      7582.0      0.91824           0.
      7584.0      0.91872           0.
      7586.0       0.9191           0.
      7588.0      0.91968           0.
      7590.0      0.92035           0.
      7592.0      0.92102           0.
      7594.0       0.9215           0.
      7596.0      0.92189           0.
      7598.0      0.92227           0.
      7600.0      0.92294           0.
      7602.0      0.92342           0.
      7604.0      0.92391           0.
      7606.0      0.92429           0.
      7608.0      0.92477           0.
      7610.0      0.92544           0.
      7612.0      0.92573           0.
      7614.0       0.9264           0.
      7616.0      0.92688           0.
      7618.0      0.92727           0.
      7620.0      0.92804           0.
      7622.0      0.92833           0.
      7624.0      0.92881           0.
      7626.0      0.92929           0.
      7628.0      0.92977           0.
      7630.0      0.92996           0.
      7632.0      0.93044           0.
      7634.0      0.93054           0.
      7636.0      0.93082           0.
      7638.0       0.9315           0.
      7640.0      0.93178           0.
      7642.0      0.93226           0.
      7644.0      0.93246           0.
      7646.0      0.93284           0.
      7648.0      0.93313           0.
      7650.0      0.93323           0.
      7652.0      0.93332           0.
      7654.0      0.93342           0.
      7656.0       0.9338           0.
      7658.0      0.93409           0.
      7660.0      0.93457           0.
      7662.0      0.93505           0.
      7664.0      0.93534           0.
      7666.0      0.93553           0.
      7668.0      0.93582           0.
      7670.0      0.93601           0.
      7672.0       0.9362           0.
      7674.0       0.9363           0.
      7676.0      0.93659           0.
      7678.0      0.93697           0.
      7680.0      0.93707           0.
      7682.0      0.93736           0.
      7684.0      0.93755           0.
      7686.0      0.93755           0.
      7688.0      0.93784           0.
      7690.0      0.93793           0.
      7692.0      0.93832           0.
      7694.0      0.93841           0.
      7696.0       0.9389           0.
      7698.0       0.9388           0.
      7700.0      0.93899           0.
      7702.0      0.93918           0.
      7704.0      0.93909           0.
      7706.0      0.93909           0.
      7708.0      0.93928           0.
      7710.0      0.93909           0.
      7712.0      0.93947           0.
      7714.0      0.93957           0.
      7716.0      0.93957           0.
      7718.0      0.93938           0.
      7720.0      0.93966           0.
      7722.0      0.93986           0.
      7724.0      0.93976           0.
      7726.0      0.93986           0.
      7728.0      0.93976           0.
      7730.0      0.93995           0.
      7732.0      0.94014           0.
      7734.0      0.94024           0.
      7736.0      0.94034           0.
      7738.0      0.94062           0.
      7740.0      0.94053           0.
      7742.0      0.94034           0.
      7744.0      0.94043           0.
      7746.0      0.94062           0.
      7748.0      0.94072           0.
      7750.0      0.94082           0.
      7752.0      0.94082           0.
      7754.0      0.94062           0.
      7756.0      0.94053           0.
      7758.0      0.94043           0.
      7760.0      0.94043           0.
      7762.0      0.94043           0.
      7764.0      0.94034           0.
      7766.0      0.94034           0.
      7768.0      0.94014           0.
      7770.0      0.94024           0.
      7772.0      0.94062           0.
      7774.0      0.94053           0.
      7776.0      0.94072           0.
      7778.0      0.94082           0.
      7780.0      0.94062           0.
      7782.0      0.94062           0.
      7784.0      0.94024           0.
      7786.0      0.93995           0.
      7788.0      0.93995           0.
      7790.0      0.93986           0.
      7792.0      0.93976           0.
      7794.0      0.93976           0.
      7796.0      0.93995           0.
      7798.0      0.93976           0.
      7800.0      0.93947           0.
      7802.0      0.93947           0.
      7804.0      0.93899           0.
      7806.0      0.93918           0.
      7808.0      0.93899           0.
      7810.0      0.93899           0.
      7812.0       0.9389           0.
      7814.0       0.9388           0.
      7816.0      0.93861           0.
      7818.0      0.93851           0.
      7820.0      0.93851           0.
      7822.0      0.93841           0.
      7824.0      0.93822           0.
      7826.0      0.93813           0.
      7828.0      0.93793           0.
      7830.0      0.93803           0.
      7832.0      0.93765           0.
      7834.0      0.93784           0.
      7836.0      0.93784           0.
      7838.0      0.93755           0.
      7840.0      0.93726           0.
      7842.0      0.93697           0.
      7844.0      0.93649           0.
      7846.0      0.93659           0.
      7848.0       0.9362           0.
      7850.0      0.93611           0.
      7852.0      0.93601           0.
      7854.0      0.93572           0.
      7856.0      0.93572           0.
      7858.0      0.93572           0.
      7860.0      0.93611           0.
      7862.0      0.93601           0.
      7864.0      0.93582           0.
      7866.0      0.93572           0.
      7868.0      0.93544           0.
      7870.0      0.93515           0.
      7872.0      0.93486           0.
      7874.0      0.93467           0.
      7876.0      0.93438           0.
      7878.0      0.93447           0.
      7880.0      0.93371           0.
      7882.0      0.93342           0.
      7884.0      0.93323           0.
      7886.0      0.93303           0.
      7888.0      0.93284           0.
      7890.0      0.93284           0.
      7892.0      0.93294           0.
      7894.0      0.93303           0.
      7896.0      0.93294           0.
      7898.0      0.93275           0.
      7900.0      0.93265           0.
      7902.0      0.93255           0.
      7904.0      0.93246           0.
      7906.0      0.93207           0.
      7908.0      0.93178           0.
      7910.0       0.9314           0.
      7912.0      0.93121           0.
      7914.0      0.93073           0.
      7916.0      0.93073           0.
      7918.0      0.93073           0.
      7920.0      0.93063           0.
      7922.0      0.93025           0.
      7924.0      0.92996           0.
      7926.0      0.92986           0.
      7928.0      0.92957           0.
      7930.0      0.92967           0.
