#  Table crwfpc2comp$wfpc2_f785lp_004.tab  Thu 08:19:10 15-May-97

# WAVELENGTH   THROUGHPUT        error
#  ANGSTROMS TRANSMISSION TRANSMISSION

      1860.0    7.4572E-6           0.
      1870.0           0.           0.
      1880.0    9.3215E-7           0.
      1890.0    9.3215E-7           0.
      1900.0    9.3215E-7           0.
      1910.0    1.8643E-6           0.
      1920.0    2.7965E-6           0.
      1930.0    9.3215E-7           0.
      1940.0           0.           0.
      1950.0           0.           0.
      1960.0    9.3215E-7           0.
      1970.0           0.           0.
      1980.0           0.           0.
      1990.0           0.           0.
      2000.0           0.           0.
      2010.0           0.           0.
      2020.0           0.           0.
      2030.0           0.           0.
      2040.0           0.           0.
      2050.0           0.           0.
      2060.0           0.           0.
      2070.0           0.           0.
      2080.0           0.           0.
      2090.0           0.           0.
      2100.0           0.           0.
      2110.0           0.           0.
      2120.0           0.           0.
      2130.0           0.           0.
      2140.0           0.           0.
      2150.0           0.           0.
      2160.0           0.           0.
      2170.0           0.           0.
      2180.0           0.           0.
      2190.0           0.           0.
      2200.0           0.           0.
      2210.0           0.           0.
      2220.0           0.           0.
      2230.0           0.           0.
      2240.0           0.           0.
      2250.0           0.           0.
      2260.0           0.           0.
      2270.0           0.           0.
      2280.0           0.           0.
      2290.0           0.           0.
      2300.0           0.           0.
      2310.0           0.           0.
      2320.0           0.           0.
      2330.0           0.           0.
      2340.0           0.           0.
      2350.0           0.           0.
      2360.0           0.           0.
      2370.0           0.           0.
      2380.0           0.           0.
      2390.0           0.           0.
      2400.0           0.           0.
      2410.0           0.           0.
      2420.0           0.           0.
      2430.0           0.           0.
      2440.0           0.           0.
      2450.0           0.           0.
      2460.0           0.           0.
      2470.0           0.           0.
      2480.0           0.           0.
      2490.0           0.           0.
      2500.0           0.           0.
      2510.0           0.           0.
      2520.0           0.           0.
      2530.0           0.           0.
      2540.0           0.           0.
      2550.0           0.           0.
      2560.0           0.           0.
      2570.0           0.           0.
      2580.0           0.           0.
      2590.0           0.           0.
      2600.0           0.           0.
      2610.0           0.           0.
      2620.0           0.           0.
      2630.0           0.           0.
      2640.0           0.           0.
      2650.0           0.           0.
      2660.0           0.           0.
      2670.0           0.           0.
      2680.0           0.           0.
      2690.0           0.           0.
      2700.0           0.           0.
      2710.0           0.           0.
      2720.0           0.           0.
      2730.0           0.           0.
      2740.0           0.           0.
      2750.0           0.           0.
      2760.0           0.           0.
      2770.0           0.           0.
      2780.0           0.           0.
      2790.0           0.           0.
      2800.0           0.           0.
      2810.0           0.           0.
      2820.0           0.           0.
      2830.0           0.           0.
      2840.0           0.           0.
      2850.0           0.           0.
      2860.0           0.           0.
      2870.0           0.           0.
      2880.0           0.           0.
      2890.0           0.           0.
      2900.0           0.           0.
      2910.0           0.           0.
      2920.0           0.           0.
      2930.0           0.           0.
      2940.0           0.           0.
      2950.0           0.           0.
      2960.0           0.           0.
      2970.0           0.           0.
      2980.0           0.           0.
      2990.0           0.           0.
      3000.0           0.           0.
      3010.0           0.           0.
      3020.0           0.           0.
      3030.0           0.           0.
      3040.0           0.           0.
      3050.0           0.           0.
      3060.0           0.           0.
      3070.0           0.           0.
      3080.0           0.           0.
      3090.0           0.           0.
      3100.0           0.           0.
      3110.0           0.           0.
      3120.0           0.           0.
      3130.0           0.           0.
      3140.0           0.           0.
      3150.0           0.           0.
      3160.0           0.           0.
      3170.0           0.           0.
      3180.0           0.           0.
      3190.0           0.           0.
      3200.0           0.           0.
      3210.0           0.           0.
      3220.0           0.           0.
      3230.0           0.           0.
      3240.0           0.           0.
      3250.0           0.           0.
      3260.0           0.           0.
      3270.0           0.           0.
      3280.0           0.           0.
      3290.0           0.           0.
      3300.0           0.           0.
      3310.0           0.           0.
      3320.0           0.           0.
      3330.0           0.           0.
      3340.0           0.           0.
      3350.0           0.           0.
      3360.0           0.           0.
      3370.0           0.           0.
      3380.0           0.           0.
      3390.0           0.           0.
      3400.0           0.           0.
      3410.0           0.           0.
      3420.0           0.           0.
      3430.0    9.3215E-7           0.
      3440.0           0.           0.
      3450.0           0.           0.
      3460.0    9.3215E-7           0.
      3470.0           0.           0.
      3480.0           0.           0.
      3490.0           0.           0.
      3500.0           0.           0.
      3510.0           0.           0.
      3520.0           0.           0.
      3530.0           0.           0.
      3540.0           0.           0.
      3550.0           0.           0.
      3560.0           0.           0.
      3570.0           0.           0.
      3580.0    9.3215E-7           0.
      3590.0    9.3215E-7           0.
      3600.0           0.           0.
      3610.0           0.           0.
      3620.0           0.           0.
      3630.0           0.           0.
      3640.0           0.           0.
      3650.0           0.           0.
      3660.0           0.           0.
      3670.0           0.           0.
      3680.0           0.           0.
      3690.0           0.           0.
      3700.0           0.           0.
      3710.0           0.           0.
      3720.0           0.           0.
      3730.0           0.           0.
      3740.0           0.           0.
      3750.0           0.           0.
      3760.0           0.           0.
      3770.0           0.           0.
      3780.0           0.           0.
      3790.0           0.           0.
      3800.0           0.           0.
      3810.0           0.           0.
      3820.0           0.           0.
      3830.0           0.           0.
      3840.0           0.           0.
      3850.0           0.           0.
      3860.0           0.           0.
      3870.0           0.           0.
      3880.0           0.           0.
      3890.0           0.           0.
      3900.0           0.           0.
      3910.0           0.           0.
      3920.0           0.           0.
      3930.0           0.           0.
      3940.0           0.           0.
      3950.0           0.           0.
      3960.0           0.           0.
      3970.0           0.           0.
      3980.0           0.           0.
      3990.0           0.           0.
      4000.0           0.           0.
      4010.0           0.           0.
      4020.0           0.           0.
      4030.0           0.           0.
      4040.0           0.           0.
      4050.0           0.           0.
      4060.0           0.           0.
      4070.0           0.           0.
      4080.0           0.           0.
      4090.0           0.           0.
      4100.0           0.           0.
      4110.0           0.           0.
      4120.0           0.           0.
      4130.0           0.           0.
      4140.0           0.           0.
      4150.0           0.           0.
      4160.0           0.           0.
      4170.0           0.           0.
      4180.0           0.           0.
      4190.0           0.           0.
      4200.0           0.           0.
      4210.0           0.           0.
      4220.0           0.           0.
      4230.0           0.           0.
      4240.0           0.           0.
      4250.0           0.           0.
      4260.0           0.           0.
      4270.0           0.           0.
      4280.0           0.           0.
      4290.0           0.           0.
      4300.0           0.           0.
      4310.0           0.           0.
      4320.0           0.           0.
      4330.0           0.           0.
      4340.0           0.           0.
      4350.0           0.           0.
      4360.0           0.           0.
      4370.0           0.           0.
      4380.0           0.           0.
      4390.0           0.           0.
      4400.0    2.7965E-6           0.
      4410.0    6.5251E-6           0.
      4420.0    1.0254E-5           0.
      4430.0    1.1186E-5           0.
      4440.0    1.0254E-5           0.
      4450.0    7.4572E-6           0.
      4460.0    5.5929E-6           0.
      4470.0    2.7965E-6           0.
      4480.0    1.8643E-6           0.
      4490.0    9.3215E-7           0.
      4500.0           0.           0.
      4510.0           0.           0.
      4520.0           0.           0.
      4530.0           0.           0.
      4540.0           0.           0.
      4550.0           0.           0.
      4560.0           0.           0.
      4570.0           0.           0.
      4580.0           0.           0.
      4590.0           0.           0.
      4600.0           0.           0.
      4610.0           0.           0.
      4620.0           0.           0.
      4630.0           0.           0.
      4640.0           0.           0.
      4650.0           0.           0.
      4660.0           0.           0.
      4670.0           0.           0.
      4680.0           0.           0.
      4690.0           0.           0.
      4700.0           0.           0.
      4710.0           0.           0.
      4720.0           0.           0.
      4730.0           0.           0.
      4740.0           0.           0.
      4750.0           0.           0.
      4760.0           0.           0.
      4770.0           0.           0.
      4780.0           0.           0.
      4790.0           0.           0.
      4800.0           0.           0.
      4810.0           0.           0.
      4820.0           0.           0.
      4830.0           0.           0.
      4840.0           0.           0.
      4850.0           0.           0.
      4860.0           0.           0.
      4870.0           0.           0.
      4880.0           0.           0.
      4890.0           0.           0.
      4900.0           0.           0.
      4910.0           0.           0.
      4920.0           0.           0.
      4930.0           0.           0.
      4940.0           0.           0.
      4950.0           0.           0.
      4960.0           0.           0.
      4970.0           0.           0.
      4980.0           0.           0.
      4990.0           0.           0.
      5000.0           0.           0.
      5010.0           0.           0.
      5020.0           0.           0.
      5030.0           0.           0.
      5040.0           0.           0.
      5050.0           0.           0.
      5060.0           0.           0.
      5070.0           0.           0.
      5080.0           0.           0.
      5090.0           0.           0.
      5100.0           0.           0.
      5110.0           0.           0.
      5120.0           0.           0.
      5130.0           0.           0.
      5140.0           0.           0.
      5150.0           0.           0.
      5160.0           0.           0.
      5170.0           0.           0.
      5180.0           0.           0.
      5190.0           0.           0.
      5200.0           0.           0.
      5210.0           0.           0.
      5220.0           0.           0.
      5230.0           0.           0.
      5240.0           0.           0.
      5250.0           0.           0.
      5260.0           0.           0.
      5270.0           0.           0.
      5280.0           0.           0.
      5290.0           0.           0.
      5300.0           0.           0.
      5310.0           0.           0.
      5320.0           0.           0.
      5330.0           0.           0.
      5340.0           0.           0.
      5350.0           0.           0.
      5360.0           0.           0.
      5370.0           0.           0.
      5380.0           0.           0.
      5390.0           0.           0.
      5400.0           0.           0.
      5410.0           0.           0.
      5420.0           0.           0.
      5430.0           0.           0.
      5440.0           0.           0.
      5450.0           0.           0.
      5460.0           0.           0.
      5470.0           0.           0.
      5480.0           0.           0.
      5490.0           0.           0.
      5500.0           0.           0.
      5510.0           0.           0.
      5520.0           0.           0.
      5530.0           0.           0.
      5540.0           0.           0.
      5550.0           0.           0.
      5560.0           0.           0.
      5570.0           0.           0.
      5580.0           0.           0.
      5590.0           0.           0.
      5600.0           0.           0.
      5610.0           0.           0.
      5620.0           0.           0.
      5630.0           0.           0.
      5640.0           0.           0.
      5650.0           0.           0.
      5660.0           0.           0.
      5670.0           0.           0.
      5680.0           0.           0.
      5690.0           0.           0.
      5700.0           0.           0.
      5710.0           0.           0.
      5720.0           0.           0.
      5730.0           0.           0.
      5740.0           0.           0.
      5750.0           0.           0.
      5760.0           0.           0.
      5770.0           0.           0.
      5780.0           0.           0.
      5790.0           0.           0.
      5800.0           0.           0.
      5810.0           0.           0.
      5820.0           0.           0.
      5830.0           0.           0.
      5840.0           0.           0.
      5850.0           0.           0.
      5860.0           0.           0.
      5870.0           0.           0.
      5880.0           0.           0.
      5890.0           0.           0.
      5900.0           0.           0.
      5910.0           0.           0.
      5920.0           0.           0.
      5930.0           0.           0.
      5940.0           0.           0.
      5950.0           0.           0.
      5960.0           0.           0.
      5970.0           0.           0.
      5980.0           0.           0.
      5990.0           0.           0.
      6000.0           0.           0.
      6010.0           0.           0.
      6020.0           0.           0.
      6030.0           0.           0.
      6040.0           0.           0.
      6050.0           0.           0.
      6060.0           0.           0.
      6070.0           0.           0.
      6080.0           0.           0.
      6090.0           0.           0.
      6100.0           0.           0.
      6110.0           0.           0.
      6120.0           0.           0.
      6130.0           0.           0.
      6140.0           0.           0.
      6150.0           0.           0.
      6160.0           0.           0.
      6170.0           0.           0.
      6180.0           0.           0.
      6190.0           0.           0.
      6200.0           0.           0.
      6210.0           0.           0.
      6220.0           0.           0.
      6230.0           0.           0.
      6240.0           0.           0.
      6250.0           0.           0.
      6260.0           0.           0.
      6270.0           0.           0.
      6280.0           0.           0.
      6290.0           0.           0.
      6300.0           0.           0.
      6310.0           0.           0.
      6320.0           0.           0.
      6330.0           0.           0.
      6340.0           0.           0.
      6350.0           0.           0.
      6360.0           0.           0.
      6370.0           0.           0.
      6380.0           0.           0.
      6390.0           0.           0.
      6400.0           0.           0.
      6410.0           0.           0.
      6420.0           0.           0.
      6430.0           0.           0.
      6440.0           0.           0.
      6450.0           0.           0.
      6460.0           0.           0.
      6470.0           0.           0.
      6480.0           0.           0.
      6490.0           0.           0.
      6500.0           0.           0.
      6510.0           0.           0.
      6520.0           0.           0.
      6530.0           0.           0.
      6540.0           0.           0.
      6550.0           0.           0.
      6560.0           0.           0.
      6570.0           0.           0.
      6580.0           0.           0.
      6590.0           0.           0.
      6600.0           0.           0.
      6610.0           0.           0.
      6620.0           0.           0.
      6630.0           0.           0.
      6640.0           0.           0.
      6650.0           0.           0.
      6660.0           0.           0.
      6670.0           0.           0.
      6680.0           0.           0.
      6690.0           0.           0.
      6700.0           0.           0.
      6710.0           0.           0.
      6720.0           0.           0.
      6730.0           0.           0.
      6740.0           0.           0.
      6750.0           0.           0.
      6760.0           0.           0.
      6770.0           0.           0.
      6780.0           0.           0.
      6790.0           0.           0.
      6800.0           0.           0.
      6810.0           0.           0.
      6820.0           0.           0.
      6830.0           0.           0.
      6840.0           0.           0.
      6850.0           0.           0.
      6860.0           0.           0.
      6870.0           0.           0.
      6880.0           0.           0.
      6890.0           0.           0.
      6900.0           0.           0.
      6910.0           0.           0.
      6920.0           0.           0.
      6930.0           0.           0.
      6940.0           0.           0.
