#  Table crwfpc2comp$wfpc2_f702w_004.tab  Thu 08:19:10 15-May-97

# WAVELENGTH   THROUGHPUT        error
#  ANGSTROMS TRANSMISSION TRANSMISSION

      1850.0    5.5081E-6           0.
      1860.0    4.7368E-5           0.
      1870.0    1.7840E-5           0.
      1880.0    4.5710E-5           0.
      1890.0    3.4425E-5           0.
      1900.0    3.2285E-5           0.
      1910.0    9.5080E-6           0.
      1920.0    3.1029E-7           0.
      1930.0    1.0912E-5           0.
      1940.0    3.7486E-6           0.
      1950.0    3.1029E-7           0.
      1960.0    1.1491E-6           0.
      1970.0    8.4413E-7           0.
      1980.0    6.1656E-6           0.
      1990.0    7.0213E-6           0.
      2000.0    3.1029E-7           0.
      2010.0    3.1029E-7           0.
      2020.0    5.0656E-7           0.
      2030.0    1.1648E-6           0.
      2040.0    6.9723E-6           0.
      2050.0    3.1029E-7           0.
      2060.0    6.2647E-7           0.
      2070.0    4.9184E-7           0.
      2080.0    3.1029E-7           0.
      2090.0    1.6594E-6           0.
      2100.0    4.8457E-6           0.
      2110.0    3.2413E-6           0.
      2120.0    6.2147E-7           0.
      2130.0    3.1029E-7           0.
      2140.0    6.6249E-7           0.
      2150.0    2.4042E-6           0.
      2160.0    1.1776E-6           0.
      2170.0    3.1029E-7           0.
      2180.0    1.5731E-6           0.
      2190.0    3.9547E-7           0.
      2200.0    4.0391E-7           0.
      2210.0    3.1029E-7           0.
      2220.0    9.7592E-7           0.
      2230.0    1.9185E-6           0.
      2240.0    4.1549E-7           0.
      2250.0    6.9153E-7           0.
      2260.0    8.6856E-7           0.
      2270.0    1.8684E-6           0.
      2280.0    1.3856E-6           0.
      2290.0    1.4249E-6           0.
      2300.0    4.8614E-7           0.
      2310.0    3.1029E-7           0.
      2320.0    3.7663E-7           0.
      2330.0    4.5906E-7           0.
      2340.0    3.1883E-7           0.
      2350.0    3.5857E-7           0.
      2360.0    4.2462E-7           0.
      2370.0    3.1029E-7           0.
      2380.0    4.5867E-7           0.
      2390.0    8.8368E-7           0.
      2400.0    1.9842E-6           0.
      2410.0    1.9881E-6           0.
      2420.0    8.2872E-7           0.
      2430.0    3.7369E-7           0.
      2440.0    1.0147E-6           0.
      2450.0    4.4218E-7           0.
      2460.0    6.8359E-7           0.
      2470.0    4.9095E-7           0.
      2480.0    6.0979E-7           0.
      2490.0    3.1765E-7           0.
      2500.0    3.2276E-7           0.
      2510.0    3.1893E-7           0.
      2520.0    7.1518E-7           0.
      2530.0    3.6721E-7           0.
      2540.0    5.2255E-7           0.
      2550.0    3.7771E-7           0.
      2560.0    3.4415E-7           0.
      2570.0    1.2119E-6           0.
      2580.0    1.1687E-6           0.
      2590.0    3.1029E-7           0.
      2600.0    7.4924E-7           0.
      2610.0    1.4739E-6           0.
      2620.0    8.9369E-7           0.
      2630.0    1.7320E-6           0.
      2640.0    4.6514E-7           0.
      2650.0    7.3236E-7           0.
      2660.0    5.0970E-7           0.
      2670.0    7.4570E-7           0.
      2680.0    6.3638E-7           0.
      2690.0    1.4082E-6           0.
      2700.0    3.1029E-7           0.
      2710.0    9.9015E-7           0.
      2720.0    1.0343E-6           0.
      2730.0    3.8291E-7           0.
      2740.0    3.1029E-7           0.
      2750.0    7.1234E-7           0.
      2760.0    9.5384E-7           0.
      2770.0    3.1029E-7           0.
      2780.0    3.1510E-7           0.
      2790.0    4.3443E-7           0.
      2800.0    4.1284E-7           0.
      2810.0    7.8927E-7           0.
      2820.0    1.1746E-6           0.
      2830.0    7.7710E-7           0.
      2840.0    7.7858E-7           0.
      2850.0    9.6297E-7           0.
      2860.0    3.1392E-7           0.
      2870.0    5.8800E-7           0.
      2880.0    9.7818E-7           0.
      2890.0    4.5759E-7           0.
      2900.0    7.7024E-7           0.
      2910.0    8.9192E-7           0.
      2920.0    4.2413E-7           0.
      2930.0    4.1304E-7           0.
      2940.0    1.6947E-6           0.
      2950.0    1.4357E-6           0.
      2960.0    5.4434E-7           0.
      2970.0    3.1029E-7           0.
      2980.0    4.1205E-7           0.
      2990.0    4.9851E-7           0.
      3000.0    3.9017E-7           0.
      3010.0    3.1029E-7           0.
      3020.0    4.7918E-7           0.
      3030.0    6.7142E-7           0.
      3040.0    7.1518E-7           0.
      3050.0    3.1029E-7           0.
      3060.0    3.1029E-7           0.
      3070.0    9.5806E-7           0.
      3080.0    1.4111E-6           0.
      3090.0    3.1029E-7           0.
      3100.0    9.8524E-7           0.
      3110.0    3.8458E-7           0.
      3120.0    3.1029E-7           0.
      3130.0    4.1147E-7           0.
      3140.0    3.1029E-7           0.
      3150.0    3.1029E-7           0.
      3160.0    3.1029E-7           0.
      3170.0    1.3169E-6           0.
      3180.0    3.1029E-7           0.
      3190.0    9.8112E-7           0.
      3200.0    5.6190E-7           0.
      3210.0    4.6966E-7           0.
      3220.0    4.3276E-7           0.
      3230.0    1.1099E-6           0.
      3240.0    3.5161E-7           0.
      3250.0    8.8515E-7           0.
      3260.0    3.7290E-7           0.
      3270.0    3.8301E-7           0.
      3280.0    3.2982E-7           0.
      3290.0    5.0616E-7           0.
      3300.0    3.1029E-7           0.
      3310.0    1.0637E-6           0.
      3320.0    3.1029E-7           0.
      3330.0    3.3826E-7           0.
      3340.0    5.2589E-7           0.
      3350.0    4.2609E-7           0.
      3360.0    9.2362E-7           0.
      3370.0    9.9604E-7           0.
      3380.0    4.6524E-7           0.
      3390.0    7.7504E-7           0.
      3400.0    6.6111E-7           0.
      3410.0    7.3991E-7           0.
      3420.0    1.0844E-6           0.
      3430.0    3.1029E-7           0.
      3440.0    2.9538E-6           0.
      3450.0    3.1029E-7           0.
      3460.0    3.1029E-7           0.
      3470.0    3.2550E-7           0.
      3480.0    6.6465E-7           0.
      3490.0    3.1029E-7           0.
      3500.0    6.1970E-7           0.
      3510.0    3.1029E-7           0.
      3520.0    3.5121E-7           0.
      3530.0    7.9467E-7           0.
      3540.0    3.1029E-7           0.
      3550.0    1.5367E-6           0.
      3560.0    2.4867E-6           0.
      3570.0    6.1519E-6           0.
      3580.0    1.1001E-6           0.
      3590.0    4.1392E-7           0.
      3600.0    1.1678E-6           0.
      3610.0    7.3059E-7           0.
      3620.0    6.0881E-7           0.
      3630.0    6.6003E-7           0.
      3640.0    3.6534E-7           0.
      3650.0    6.5768E-7           0.
      3660.0    3.1029E-7           0.
      3670.0    3.1029E-7           0.
      3680.0    3.1029E-7           0.
      3690.0    1.2895E-6           0.
      3700.0    1.0255E-6           0.
      3710.0    2.0333E-6           0.
      3720.0    1.3356E-6           0.
      3730.0    8.6297E-7           0.
      3740.0    3.1029E-7           0.
      3750.0    1.3042E-6           0.
      3760.0    5.7701E-7           0.
      3770.0    8.5453E-7           0.
      3780.0    1.4926E-6           0.
      3790.0    1.2983E-6           0.
      3800.0    4.7192E-7           0.
      3810.0    1.1050E-6           0.
      3820.0    1.4965E-6           0.
      3830.0    3.5376E-7           0.
      3840.0    3.1029E-7           0.
      3850.0    4.8192E-7           0.
      3860.0    8.9614E-7           0.
      3870.0    6.7122E-7           0.
      3880.0    1.2551E-6           0.
      3890.0    1.5466E-6           0.
      3900.0    8.2509E-7           0.
      3910.0    1.3640E-6           0.
      3920.0    2.4876E-6           0.
      3930.0    7.3658E-7           0.
      3940.0    3.9233E-7           0.
      3950.0    8.8554E-7           0.
      3960.0    1.8105E-6           0.
      3970.0    9.1410E-7           0.
      3980.0    8.8633E-7           0.
      3990.0    1.4043E-6           0.
      4000.0    4.9792E-7           0.
      4010.0    2.0519E-6           0.
      4020.0    1.0598E-6           0.
      4030.0    1.2698E-6           0.
      4040.0    1.4926E-6           0.
      4050.0    1.8959E-6           0.
      4060.0    1.0088E-6           0.
      4070.0    1.8272E-6           0.
      4080.0    1.4838E-6           0.
      4090.0    1.6996E-6           0.
      4100.0    1.1786E-6           0.
      4110.0    1.2051E-6           0.
      4120.0    1.2649E-6           0.
      4130.0    1.2168E-6           0.
      4140.0    1.5397E-6           0.
      4150.0    9.7612E-7           0.
      4160.0    1.4818E-6           0.
      4170.0    1.8724E-6           0.
      4180.0    1.8547E-6           0.
      4190.0    1.1305E-6           0.
      4200.0    7.5581E-7           0.
      4210.0    1.1354E-6           0.
      4220.0    1.2178E-6           0.
      4230.0    9.9604E-7           0.
      4240.0    1.9342E-6           0.
      4250.0    1.1854E-6           0.
      4260.0    3.1029E-7           0.
      4270.0    3.1029E-7           0.
      4280.0    3.1029E-7           0.
      4290.0    3.1029E-7           0.
      4300.0    3.1029E-7           0.
      4310.0    3.1029E-7           0.
      4320.0    3.1029E-7           0.
      4330.0    3.1029E-7           0.
      4340.0    3.1029E-7           0.
      4350.0    3.1029E-7           0.
      4360.0    3.1029E-7           0.
      4370.0    3.1029E-7           0.
      4380.0    3.1029E-7           0.
      4390.0    1.4317E-6           0.
      4400.0    2.3699E-5           0.
      4410.0    6.1421E-5           0.
      4420.0    8.0468E-5           0.
      4430.0    8.8691E-5           0.
      4440.0    7.9173E-5           0.
      4450.0    5.2393E-5           0.
      4460.0    3.1324E-5           0.
      4470.0    1.0461E-5           0.
      4480.0    4.1372E-6           0.
      4490.0    2.5171E-6           0.
      4500.0    2.4346E-6           0.
      4510.0    2.2963E-6           0.
      4520.0    2.4994E-6           0.
      4530.0    1.9881E-6           0.
      4540.0    2.1824E-6           0.
      4550.0    2.1295E-6           0.
      4560.0    1.6084E-6           0.
      4570.0    9.4344E-7           0.
      4580.0    7.2892E-7           0.
      4590.0    1.0245E-6           0.
      4600.0    6.3815E-7           0.
      4610.0    4.2148E-7           0.
      4620.0    5.3354E-7           0.
      4630.0    6.0371E-7           0.
      4640.0    4.1480E-7           0.
      4650.0    6.5768E-7           0.
      4660.0    6.5709E-7           0.
      4670.0    4.8850E-7           0.
      4680.0    4.8271E-7           0.
      4690.0    6.6268E-7           0.
      4700.0    6.7534E-7           0.
      4710.0    3.7192E-7           0.
      4720.0    3.1824E-7           0.
      4730.0    6.4698E-7           0.
      4740.0    6.7937E-7           0.
      4750.0    4.4336E-7           0.
      4760.0    5.5071E-7           0.
      4770.0    4.0558E-7           0.
      4780.0    4.3541E-7           0.
      4790.0    3.1029E-7           0.
      4800.0    3.1029E-7           0.
      4810.0    3.1029E-7           0.
      4820.0    3.1029E-7           0.
      4830.0    3.3080E-7           0.
      4840.0    4.5965E-7           0.
      4850.0    4.1981E-7           0.
      4860.0    4.4473E-7           0.
      4870.0    3.1029E-7           0.
      4880.0    3.3335E-7           0.
      4890.0    3.7771E-7           0.
      4900.0    3.1216E-7           0.
      4910.0    4.9350E-7           0.
      4920.0    3.8644E-7           0.
      4930.0    4.5837E-7           0.
      4940.0    3.1029E-7           0.
      4950.0    3.1029E-7           0.
      4960.0    3.1029E-7           0.
      4970.0    3.1029E-7           0.
      4980.0    3.1029E-7           0.
      4990.0    3.3865E-7           0.
      5000.0    3.6672E-7           0.
      5010.0    3.1029E-7           0.
      5020.0    3.1029E-7           0.
      5030.0    3.1029E-7           0.
      5040.0    3.1029E-7           0.
      5050.0    3.1029E-7           0.
      5060.0    4.5572E-7           0.
      5070.0    3.4434E-7           0.
      5080.0    3.2069E-7           0.
      5090.0    3.3640E-7           0.
      5100.0    3.3355E-7           0.
      5110.0    3.1029E-7           0.
      5120.0    3.3541E-7           0.
      5130.0    3.1029E-7           0.
      5140.0    6.8594E-7           0.
      5150.0    3.1029E-7           0.
      5160.0    3.1029E-7           0.
      5170.0    4.1559E-7           0.
      5180.0    3.1029E-7           0.
      5190.0    3.3640E-7           0.
      5200.0    4.4336E-7           0.
      5210.0    4.0999E-7           0.
      5220.0    3.1029E-7           0.
      5230.0    3.1029E-7           0.
      5240.0    4.0617E-7           0.
      5250.0    4.1853E-7           0.
      5260.0    3.7251E-7           0.
      5270.0    3.3924E-7           0.
      5280.0    3.1461E-7           0.
      5290.0    3.1029E-7           0.
      5300.0    4.2138E-7           0.
      5310.0    4.8232E-7           0.
      5320.0    5.3089E-7           0.
      5330.0    3.2962E-7           0.
      5340.0    3.1029E-7           0.
      5350.0    3.5877E-7           0.
      5360.0    3.7251E-7           0.
      5370.0    5.3757E-7           0.
      5380.0    3.1029E-7           0.
      5390.0    4.5229E-7           0.
      5400.0    5.2422E-7           0.
      5410.0    4.6917E-7           0.
      5420.0    3.3649E-7           0.
      5430.0    5.8879E-7           0.
      5440.0    3.3689E-7           0.
      5450.0    3.1029E-7           0.
      5460.0    4.5661E-7           0.
      5470.0    3.1029E-7           0.
      5480.0    4.2059E-7           0.
      5490.0    3.1029E-7           0.
      5500.0    5.7387E-7           0.
      5510.0    3.9743E-7           0.
      5520.0    4.7358E-7           0.
      5530.0    3.5259E-7           0.
      5540.0    3.1559E-7           0.
      5550.0    4.5670E-7           0.
      5560.0    3.1029E-7           0.
      5570.0    5.1509E-7           0.
      5580.0    3.6672E-7           0.
      5590.0    3.1029E-7           0.
      5600.0    3.5573E-7           0.
      5610.0    5.2206E-7           0.
      5620.0    4.5190E-7           0.
      5630.0    3.3816E-7           0.
      5640.0    3.1029E-7           0.
      5650.0    3.1029E-7           0.
      5660.0    4.8448E-7           0.
      5670.0    3.1029E-7           0.
      5680.0    3.1029E-7           0.
      5690.0    6.0214E-7           0.
      5700.0    1.1266E-6           0.
      5710.0    3.7015E-7           0.
      5720.0    1.1648E-6           0.
      5730.0    2.0362E-6           0.
      5740.0    3.7614E-6           0.
      5750.0    9.3431E-6           0.
      5760.0    2.0097E-5           0.
      5770.0    4.8663E-5           0.
      5780.0    1.0353E-4           0.
      5790.0    2.2413E-4           0.
      5800.0    4.1215E-4           0.
      5810.0    7.7338E-4           0.
      5820.0    0.0012806           0.
      5830.0    0.0021756           0.
      5840.0    0.0032845           0.
      5850.0    0.0050577           0.
      5852.0    0.0055297           0.
      5854.0    0.0060802           0.
      5856.0    0.0066298           0.
      5858.0    0.0072176           0.
      5860.0    0.0079045           0.
      5862.0    0.0086111           0.
      5864.0    0.0093951           0.
      5866.0     0.010196           0.
      5868.0     0.011079           0.
      5870.0     0.012021           0.
      5872.0     0.013032           0.
      5874.0      0.01417           0.
      5876.0     0.015338           0.
      5878.0     0.016633           0.
      5880.0     0.018056           0.
      5882.0     0.019558           0.
      5884.0     0.021216           0.
      5886.0     0.023012           0.
      5888.0     0.024945           0.
      5890.0     0.027035           0.
      5892.0     0.029341           0.
      5894.0     0.031804           0.
      5896.0     0.034483           0.
      5898.0     0.037447           0.
      5900.0     0.040676           0.
      5902.0     0.044228           0.
      5904.0     0.048094           0.
      5906.0     0.052314           0.
      5908.0     0.056897           0.
      5910.0     0.061921           0.
      5912.0     0.067289           0.
      5914.0     0.073069           0.
      5916.0      0.07931           0.
      5918.0     0.085993           0.
      5920.0     0.093186           0.
      5922.0      0.10088           0.
      5924.0      0.10902           0.
      5926.0      0.11766           0.
      5928.0      0.12679           0.
      5930.0       0.1365           0.
      5932.0      0.14671           0.
      5934.0       0.1577           0.
      5936.0      0.16928           0.
      5938.0      0.18164           0.
      5940.0      0.19469           0.
      5942.0      0.20863           0.
      5944.0      0.22305           0.
      5946.0      0.23826           0.
      5948.0      0.25416           0.
      5950.0      0.27065           0.
      5952.0      0.28821           0.
      5954.0      0.30647           0.
      5956.0       0.3255           0.
      5958.0      0.34513           0.
      5960.0      0.36525           0.
      5962.0      0.38595           0.
      5964.0      0.40695           0.
      5966.0      0.42844           0.
      5968.0      0.45033           0.
      5970.0      0.47201           0.
      5972.0       0.4937           0.
      5974.0       0.5149           0.
      5976.0       0.5357           0.
      5978.0      0.55592           0.
      5980.0      0.57515           0.
      5982.0       0.5934           0.
      5984.0      0.61058           0.
      5986.0      0.62677           0.
      5988.0      0.64168           0.
      5990.0      0.65503           0.
      5992.0       0.6671           0.
      5994.0      0.67789           0.
      5996.0      0.68731           0.
      5998.0      0.69526           0.
      6000.0      0.70203           0.
      6002.0      0.70763           0.
      6004.0      0.71204           0.
      6006.0      0.71538           0.
      6008.0      0.71764           0.
      6010.0      0.71901           0.
      6012.0       0.7196           0.
      6014.0       0.7196           0.
      6016.0      0.71881           0.
      6018.0      0.71744           0.
      6020.0      0.71567           0.
      6022.0      0.71352           0.
      6024.0      0.71116           0.
      6026.0      0.70841           0.
      6028.0      0.70566           0.
      6030.0      0.70282           0.
      6032.0      0.69997           0.
      6034.0      0.69703           0.
      6036.0      0.69438           0.
      6038.0      0.69183           0.
      6040.0      0.68947           0.
      6042.0      0.68731           0.
      6044.0      0.68535           0.
      6046.0      0.68368           0.
      6048.0      0.68241           0.
      6050.0      0.68133           0.
      6052.0      0.68054           0.
      6054.0      0.68025           0.
      6056.0      0.68015           0.
      6058.0      0.68035           0.
      6060.0      0.68084           0.
      6062.0      0.68162           0.
      6064.0       0.6826           0.
      6066.0      0.68359           0.
